#  E (eV)   dos(E)     Int dos(E)
-50.000  0.2640E-83  0.5280E-85
-49.980  0.2640E-83  0.1056E-84
-49.960  0.2640E-83  0.1584E-84
-49.940  0.2640E-83  0.2112E-84
-49.920  0.2640E-83  0.2640E-84
-49.900  0.2640E-83  0.3168E-84
-49.880  0.2640E-83  0.3696E-84
-49.860  0.2640E-83  0.4224E-84
-49.840  0.2640E-83  0.4752E-84
-49.820  0.2640E-83  0.5280E-84
-49.800  0.2640E-83  0.5807E-84
-49.780  0.2640E-83  0.6335E-84
-49.760  0.2640E-83  0.6863E-84
-49.740  0.2640E-83  0.7391E-84
-49.720  0.2640E-83  0.7919E-84
-49.700  0.2640E-83  0.8447E-84
-49.680  0.2640E-83  0.8975E-84
-49.660  0.2640E-83  0.9503E-84
-49.640  0.2640E-83  0.1003E-83
-49.620  0.2640E-83  0.1056E-83
-49.600  0.2640E-83  0.1109E-83
-49.580  0.2640E-83  0.1161E-83
-49.560  0.2640E-83  0.1214E-83
-49.540  0.2640E-83  0.1267E-83
-49.520  0.2640E-83  0.1320E-83
-49.500  0.2640E-83  0.1373E-83
-49.480  0.2640E-83  0.1425E-83
-49.460  0.2640E-83  0.1478E-83
-49.440  0.2640E-83  0.1531E-83
-49.420  0.2640E-83  0.1584E-83
-49.400  0.2640E-83  0.1637E-83
-49.380  0.2640E-83  0.1689E-83
-49.360  0.2640E-83  0.1742E-83
-49.340  0.2640E-83  0.1795E-83
-49.320  0.2640E-83  0.1848E-83
-49.300  0.2640E-83  0.1901E-83
-49.280  0.2640E-83  0.1953E-83
-49.260  0.2640E-83  0.2006E-83
-49.240  0.2640E-83  0.2059E-83
-49.220  0.2640E-83  0.2112E-83
-49.200  0.2640E-83  0.2165E-83
-49.180  0.2640E-83  0.2217E-83
-49.160  0.2640E-83  0.2270E-83
-49.140  0.2640E-83  0.2323E-83
-49.120  0.2640E-83  0.2376E-83
-49.100  0.2640E-83  0.2429E-83
-49.080  0.2640E-83  0.2481E-83
-49.060  0.2640E-83  0.2534E-83
-49.040  0.2640E-83  0.2587E-83
-49.020  0.2640E-83  0.2640E-83
-49.000  0.2640E-83  0.2693E-83
-48.980  0.2640E-83  0.2745E-83
-48.960  0.2640E-83  0.2798E-83
-48.940  0.2640E-83  0.2851E-83
-48.920  0.2640E-83  0.2904E-83
-48.900  0.2640E-83  0.2957E-83
-48.880  0.2640E-83  0.3009E-83
-48.860  0.2640E-83  0.3062E-83
-48.840  0.2640E-83  0.3115E-83
-48.820  0.2640E-83  0.3168E-83
-48.800  0.2640E-83  0.3221E-83
-48.780  0.2640E-83  0.3273E-83
-48.760  0.2640E-83  0.3326E-83
-48.740  0.2640E-83  0.3379E-83
-48.720  0.2640E-83  0.3432E-83
-48.700  0.2640E-83  0.3484E-83
-48.680  0.2640E-83  0.3537E-83
-48.660  0.2640E-83  0.3590E-83
-48.640  0.2640E-83  0.3643E-83
-48.620  0.2640E-83  0.3696E-83
-48.600  0.2640E-83  0.3748E-83
-48.580  0.2640E-83  0.3801E-83
-48.560  0.2640E-83  0.3854E-83
-48.540  0.2640E-83  0.3907E-83
-48.520  0.2640E-83  0.3960E-83
-48.500  0.2640E-83  0.4012E-83
-48.480  0.2640E-83  0.4065E-83
-48.460  0.2640E-83  0.4118E-83
-48.440  0.2640E-83  0.4171E-83
-48.420  0.2640E-83  0.4224E-83
-48.400  0.2640E-83  0.4276E-83
-48.380  0.2640E-83  0.4329E-83
-48.360  0.2640E-83  0.4382E-83
-48.340  0.2640E-83  0.4435E-83
-48.320  0.2640E-83  0.4488E-83
-48.300  0.2640E-83  0.4540E-83
-48.280  0.2640E-83  0.4593E-83
-48.260  0.2640E-83  0.4646E-83
-48.240  0.2640E-83  0.4699E-83
-48.220  0.2640E-83  0.4752E-83
-48.200  0.2640E-83  0.4804E-83
-48.180  0.2640E-83  0.4857E-83
-48.160  0.2640E-83  0.4910E-83
-48.140  0.2640E-83  0.4963E-83
-48.120  0.2640E-83  0.5016E-83
-48.100  0.2640E-83  0.5068E-83
-48.080  0.2640E-83  0.5121E-83
-48.060  0.2640E-83  0.5174E-83
-48.040  0.2640E-83  0.5227E-83
-48.020  0.2640E-83  0.5280E-83
-48.000  0.2640E-83  0.5332E-83
-47.980  0.2640E-83  0.5385E-83
-47.960  0.2640E-83  0.5438E-83
-47.940  0.2640E-83  0.5491E-83
-47.920  0.2640E-83  0.5544E-83
-47.900  0.2640E-83  0.5596E-83
-47.880  0.2640E-83  0.5649E-83
-47.860  0.2640E-83  0.5702E-83
-47.840  0.2640E-83  0.5755E-83
-47.820  0.2640E-83  0.5807E-83
-47.800  0.2640E-83  0.5860E-83
-47.780  0.2640E-83  0.5913E-83
-47.760  0.2640E-83  0.5966E-83
-47.740  0.2640E-83  0.6019E-83
-47.720  0.2640E-83  0.6071E-83
-47.700  0.2640E-83  0.6124E-83
-47.680  0.2640E-83  0.6177E-83
-47.660  0.2640E-83  0.6230E-83
-47.640  0.2640E-83  0.6283E-83
-47.620  0.2640E-83  0.6335E-83
-47.600  0.2640E-83  0.6388E-83
-47.580  0.2640E-83  0.6441E-83
-47.560  0.2640E-83  0.6494E-83
-47.540  0.2640E-83  0.6547E-83
-47.520  0.2640E-83  0.6599E-83
-47.500  0.2640E-83  0.6652E-83
-47.480  0.2640E-83  0.6705E-83
-47.460  0.2640E-83  0.6758E-83
-47.440  0.2640E-83  0.6811E-83
-47.420  0.2640E-83  0.6863E-83
-47.400  0.2640E-83  0.6916E-83
-47.380  0.2640E-83  0.6969E-83
-47.360  0.2640E-83  0.7022E-83
-47.340  0.2640E-83  0.7075E-83
-47.320  0.2640E-83  0.7127E-83
-47.300  0.2640E-83  0.7180E-83
-47.280  0.2640E-83  0.7233E-83
-47.260  0.2640E-83  0.7286E-83
-47.240  0.2640E-83  0.7339E-83
-47.220  0.2640E-83  0.7391E-83
-47.200  0.2640E-83  0.7444E-83
-47.180  0.2640E-83  0.7497E-83
-47.160  0.2640E-83  0.7550E-83
-47.140  0.2640E-83  0.7603E-83
-47.120  0.2640E-83  0.7655E-83
-47.100  0.2640E-83  0.7708E-83
-47.080  0.2640E-83  0.7761E-83
-47.060  0.2640E-83  0.7814E-83
-47.040  0.2640E-83  0.7867E-83
-47.020  0.2640E-83  0.7919E-83
-47.000  0.2640E-83  0.7972E-83
-46.980  0.2640E-83  0.8025E-83
-46.960  0.2640E-83  0.8078E-83
-46.940  0.2640E-83  0.8130E-83
-46.920  0.2640E-83  0.8183E-83
-46.900  0.2640E-83  0.8236E-83
-46.880  0.2640E-83  0.8289E-83
-46.860  0.2640E-83  0.8342E-83
-46.840  0.2640E-83  0.8394E-83
-46.820  0.2640E-83  0.8447E-83
-46.800  0.2640E-83  0.8500E-83
-46.780  0.2640E-83  0.8553E-83
-46.760  0.2640E-83  0.8606E-83
-46.740  0.2640E-83  0.8658E-83
-46.720  0.2640E-83  0.8711E-83
-46.700  0.2640E-83  0.8764E-83
-46.680  0.2640E-83  0.8817E-83
-46.660  0.2640E-83  0.8870E-83
-46.640  0.2640E-83  0.8922E-83
-46.620  0.2640E-83  0.8975E-83
-46.600  0.2640E-83  0.9028E-83
-46.580  0.2640E-83  0.9081E-83
-46.560  0.2640E-83  0.9134E-83
-46.540  0.2640E-83  0.9186E-83
-46.520  0.2640E-83  0.9239E-83
-46.500  0.2640E-83  0.9292E-83
-46.480  0.2640E-83  0.9345E-83
-46.460  0.2640E-83  0.9398E-83
-46.440  0.2640E-83  0.9450E-83
-46.420  0.2640E-83  0.9503E-83
-46.400  0.2640E-83  0.9556E-83
-46.380  0.2640E-83  0.9609E-83
-46.360  0.2640E-83  0.9662E-83
-46.340  0.2640E-83  0.9714E-83
-46.320  0.2640E-83  0.9767E-83
-46.300  0.2640E-83  0.9820E-83
-46.280  0.2640E-83  0.9873E-83
-46.260  0.2640E-83  0.9926E-83
-46.240  0.2640E-83  0.9978E-83
-46.220  0.2640E-83  0.1003E-82
-46.200  0.2640E-83  0.1008E-82
-46.180  0.2640E-83  0.1014E-82
-46.160  0.2640E-83  0.1019E-82
-46.140  0.2640E-83  0.1024E-82
-46.120  0.2640E-83  0.1030E-82
-46.100  0.2640E-83  0.1035E-82
-46.080  0.2640E-83  0.1040E-82
-46.060  0.2640E-83  0.1045E-82
-46.040  0.2640E-83  0.1051E-82
-46.020  0.2640E-83  0.1056E-82
-46.000  0.2640E-83  0.1061E-82
-45.980  0.2640E-83  0.1066E-82
-45.960  0.2640E-83  0.1072E-82
-45.940  0.2640E-83  0.1077E-82
-45.920  0.2640E-83  0.1082E-82
-45.900  0.2640E-83  0.1088E-82
-45.880  0.2640E-83  0.1093E-82
-45.860  0.2640E-83  0.1098E-82
-45.840  0.2640E-83  0.1103E-82
-45.820  0.2640E-83  0.1109E-82
-45.800  0.2640E-83  0.1114E-82
-45.780  0.2640E-83  0.1119E-82
-45.760  0.2640E-83  0.1125E-82
-45.740  0.2640E-83  0.1130E-82
-45.720  0.2640E-83  0.1135E-82
-45.700  0.2640E-83  0.1140E-82
-45.680  0.2640E-83  0.1146E-82
-45.660  0.2640E-83  0.1151E-82
-45.640  0.2640E-83  0.1156E-82
-45.620  0.2640E-83  0.1161E-82
-45.600  0.2640E-83  0.1167E-82
-45.580  0.2640E-83  0.1172E-82
-45.560  0.2640E-83  0.1177E-82
-45.540  0.2640E-83  0.1183E-82
-45.520  0.2640E-83  0.1188E-82
-45.500  0.2640E-83  0.1193E-82
-45.480  0.2640E-83  0.1198E-82
-45.460  0.2640E-83  0.1204E-82
-45.440  0.2640E-83  0.1209E-82
-45.420  0.2640E-83  0.1214E-82
-45.400  0.2640E-83  0.1220E-82
-45.380  0.2640E-83  0.1225E-82
-45.360  0.2640E-83  0.1230E-82
-45.340  0.2640E-83  0.1235E-82
-45.320  0.2640E-83  0.1241E-82
-45.300  0.2640E-83  0.1246E-82
-45.280  0.2640E-83  0.1251E-82
-45.260  0.2640E-83  0.1257E-82
-45.240  0.2640E-83  0.1262E-82
-45.220  0.2640E-83  0.1267E-82
-45.200  0.2640E-83  0.1272E-82
-45.180  0.2640E-83  0.1278E-82
-45.160  0.2640E-83  0.1283E-82
-45.140  0.2640E-83  0.1288E-82
-45.120  0.2640E-83  0.1293E-82
-45.100  0.2640E-83  0.1299E-82
-45.080  0.2640E-83  0.1304E-82
-45.060  0.2640E-83  0.1309E-82
-45.040  0.2640E-83  0.1315E-82
-45.020  0.2640E-83  0.1320E-82
-45.000  0.2640E-83  0.1325E-82
-44.980  0.2640E-83  0.1330E-82
-44.960  0.2640E-83  0.1336E-82
-44.940  0.2640E-83  0.1341E-82
-44.920  0.2640E-83  0.1346E-82
-44.900  0.2640E-83  0.1352E-82
-44.880  0.2640E-83  0.1357E-82
-44.860  0.2640E-83  0.1362E-82
-44.840  0.2640E-83  0.1367E-82
-44.820  0.2640E-83  0.1373E-82
-44.800  0.2640E-83  0.1378E-82
-44.780  0.2640E-83  0.1383E-82
-44.760  0.2640E-83  0.1389E-82
-44.740  0.2640E-83  0.1394E-82
-44.720  0.2640E-83  0.1399E-82
-44.700  0.2640E-83  0.1404E-82
-44.680  0.2640E-83  0.1410E-82
-44.660  0.2640E-83  0.1415E-82
-44.640  0.2640E-83  0.1420E-82
-44.620  0.2640E-83  0.1425E-82
-44.600  0.2640E-83  0.1431E-82
-44.580  0.2640E-83  0.1436E-82
-44.560  0.2640E-83  0.1441E-82
-44.540  0.2640E-83  0.1447E-82
-44.520  0.2640E-83  0.1452E-82
-44.500  0.2640E-83  0.1457E-82
-44.480  0.2640E-83  0.1462E-82
-44.460  0.2640E-83  0.1468E-82
-44.440  0.2640E-83  0.1473E-82
-44.420  0.2640E-83  0.1478E-82
-44.400  0.2640E-83  0.1484E-82
-44.380  0.2640E-83  0.1489E-82
-44.360  0.2640E-83  0.1494E-82
-44.340  0.2640E-83  0.1499E-82
-44.320  0.2640E-83  0.1505E-82
-44.300  0.2640E-83  0.1510E-82
-44.280  0.2640E-83  0.1515E-82
-44.260  0.2640E-83  0.1521E-82
-44.240  0.2640E-83  0.1526E-82
-44.220  0.2640E-83  0.1531E-82
-44.200  0.2640E-83  0.1536E-82
-44.180  0.2640E-83  0.1542E-82
-44.160  0.2640E-83  0.1547E-82
-44.140  0.2640E-83  0.1552E-82
-44.120  0.2640E-83  0.1557E-82
-44.100  0.2640E-83  0.1563E-82
-44.080  0.2640E-83  0.1568E-82
-44.060  0.2640E-83  0.1573E-82
-44.040  0.2640E-83  0.1579E-82
-44.020  0.2640E-83  0.1584E-82
-44.000  0.2640E-83  0.1589E-82
-43.980  0.2640E-83  0.1594E-82
-43.960  0.2640E-83  0.1600E-82
-43.940  0.2640E-83  0.1605E-82
-43.920  0.2640E-83  0.1610E-82
-43.900  0.2640E-83  0.1616E-82
-43.880  0.2640E-83  0.1621E-82
-43.860  0.2640E-83  0.1626E-82
-43.840  0.2640E-83  0.1631E-82
-43.820  0.2640E-83  0.1637E-82
-43.800  0.2640E-83  0.1642E-82
-43.780  0.2640E-83  0.1647E-82
-43.760  0.2640E-83  0.1652E-82
-43.740  0.2640E-83  0.1658E-82
-43.720  0.2640E-83  0.1663E-82
-43.700  0.2640E-83  0.1668E-82
-43.680  0.2640E-83  0.1674E-82
-43.660  0.2640E-83  0.1679E-82
-43.640  0.2640E-83  0.1684E-82
-43.620  0.2640E-83  0.1689E-82
-43.600  0.2640E-83  0.1695E-82
-43.580  0.2640E-83  0.1700E-82
-43.560  0.2640E-83  0.1705E-82
-43.540  0.2640E-83  0.1711E-82
-43.520  0.2640E-83  0.1716E-82
-43.500  0.2640E-83  0.1721E-82
-43.480  0.2640E-83  0.1726E-82
-43.460  0.2640E-83  0.1732E-82
-43.440  0.2640E-83  0.1737E-82
-43.420  0.2640E-83  0.1742E-82
-43.400  0.2640E-83  0.1748E-82
-43.380  0.2640E-83  0.1753E-82
-43.360  0.2640E-83  0.1758E-82
-43.340  0.2640E-83  0.1763E-82
-43.320  0.2640E-83  0.1769E-82
-43.300  0.2640E-83  0.1774E-82
-43.280  0.2640E-83  0.1779E-82
-43.260  0.2640E-83  0.1784E-82
-43.240  0.2640E-83  0.1790E-82
-43.220  0.2640E-83  0.1795E-82
-43.200  0.2640E-83  0.1800E-82
-43.180  0.2640E-83  0.1806E-82
-43.160  0.2640E-83  0.1811E-82
-43.140  0.2640E-83  0.1816E-82
-43.120  0.2640E-83  0.1821E-82
-43.100  0.2640E-83  0.1827E-82
-43.080  0.2640E-83  0.1832E-82
-43.060  0.2640E-83  0.1837E-82
-43.040  0.2640E-83  0.1843E-82
-43.020  0.2640E-83  0.1848E-82
-43.000  0.2640E-83  0.1853E-82
-42.980  0.2640E-83  0.1858E-82
-42.960  0.2640E-83  0.1864E-82
-42.940  0.2640E-83  0.1869E-82
-42.920  0.2640E-83  0.1874E-82
-42.900  0.2640E-83  0.1880E-82
-42.880  0.2640E-83  0.1885E-82
-42.860  0.2640E-83  0.1890E-82
-42.840  0.2640E-83  0.1895E-82
-42.820  0.2640E-83  0.1901E-82
-42.800  0.2640E-83  0.1906E-82
-42.780  0.2640E-83  0.1911E-82
-42.760  0.2640E-83  0.1916E-82
-42.740  0.2640E-83  0.1922E-82
-42.720  0.2640E-83  0.1927E-82
-42.700  0.2640E-83  0.1932E-82
-42.680  0.2640E-83  0.1938E-82
-42.660  0.2640E-83  0.1943E-82
-42.640  0.2640E-83  0.1948E-82
-42.620  0.2640E-83  0.1953E-82
-42.600  0.2640E-83  0.1959E-82
-42.580  0.2640E-83  0.1964E-82
-42.560  0.2640E-83  0.1969E-82
-42.540  0.2640E-83  0.1975E-82
-42.520  0.2640E-83  0.1980E-82
-42.500  0.2640E-83  0.1985E-82
-42.480  0.2640E-83  0.1990E-82
-42.460  0.2640E-83  0.1996E-82
-42.440  0.2640E-83  0.2001E-82
-42.420  0.2640E-83  0.2006E-82
-42.400  0.2640E-83  0.2012E-82
-42.380  0.2640E-83  0.2017E-82
-42.360  0.2640E-83  0.2022E-82
-42.340  0.2640E-83  0.2027E-82
-42.320  0.2640E-83  0.2033E-82
-42.300  0.2640E-83  0.2038E-82
-42.280  0.2640E-83  0.2043E-82
-42.260  0.2640E-83  0.2048E-82
-42.240  0.2640E-83  0.2054E-82
-42.220  0.2640E-83  0.2059E-82
-42.200  0.2640E-83  0.2064E-82
-42.180  0.2640E-83  0.2070E-82
-42.160  0.2640E-83  0.2075E-82
-42.140  0.2640E-83  0.2080E-82
-42.120  0.2640E-83  0.2085E-82
-42.100  0.2640E-83  0.2091E-82
-42.080  0.2640E-83  0.2096E-82
-42.060  0.2640E-83  0.2101E-82
-42.040  0.2640E-83  0.2107E-82
-42.020  0.2640E-83  0.2112E-82
-42.000  0.2640E-83  0.2117E-82
-41.980  0.2640E-83  0.2122E-82
-41.960  0.2640E-83  0.2128E-82
-41.940  0.2640E-83  0.2133E-82
-41.920  0.2640E-83  0.2138E-82
-41.900  0.2640E-83  0.2143E-82
-41.880  0.2640E-83  0.2149E-82
-41.860  0.2640E-83  0.2154E-82
-41.840  0.2640E-83  0.2159E-82
-41.820  0.2640E-83  0.2165E-82
-41.800  0.2640E-83  0.2170E-82
-41.780  0.2640E-83  0.2175E-82
-41.760  0.2640E-83  0.2180E-82
-41.740  0.2640E-83  0.2186E-82
-41.720  0.2640E-83  0.2191E-82
-41.700  0.2640E-83  0.2196E-82
-41.680  0.2640E-83  0.2202E-82
-41.660  0.2640E-83  0.2207E-82
-41.640  0.2640E-83  0.2212E-82
-41.620  0.2640E-83  0.2217E-82
-41.600  0.2640E-83  0.2223E-82
-41.580  0.2640E-83  0.2228E-82
-41.560  0.2640E-83  0.2233E-82
-41.540  0.2640E-83  0.2239E-82
-41.520  0.2640E-83  0.2244E-82
-41.500  0.2640E-83  0.2249E-82
-41.480  0.2640E-83  0.2254E-82
-41.460  0.2640E-83  0.2260E-82
-41.440  0.2640E-83  0.2265E-82
-41.420  0.2640E-83  0.2270E-82
-41.400  0.2640E-83  0.2275E-82
-41.380  0.2640E-83  0.2281E-82
-41.360  0.2640E-83  0.2286E-82
-41.340  0.2640E-83  0.2291E-82
-41.320  0.2640E-83  0.2297E-82
-41.300  0.2640E-83  0.2302E-82
-41.280  0.2640E-83  0.2307E-82
-41.260  0.2640E-83  0.2312E-82
-41.240  0.2640E-83  0.2318E-82
-41.220  0.2640E-83  0.2323E-82
-41.200  0.2640E-83  0.2328E-82
-41.180  0.2640E-83  0.2334E-82
-41.160  0.2640E-83  0.2339E-82
-41.140  0.2640E-83  0.2344E-82
-41.120  0.2640E-83  0.2349E-82
-41.100  0.2640E-83  0.2355E-82
-41.080  0.2640E-83  0.2360E-82
-41.060  0.2640E-83  0.2365E-82
-41.040  0.2640E-83  0.2371E-82
-41.020  0.2640E-83  0.2376E-82
-41.000  0.2640E-83  0.2381E-82
-40.980  0.2640E-83  0.2386E-82
-40.960  0.2640E-83  0.2392E-82
-40.940  0.2640E-83  0.2397E-82
-40.920  0.2640E-83  0.2402E-82
-40.900  0.2640E-83  0.2407E-82
-40.880  0.2640E-83  0.2413E-82
-40.860  0.2640E-83  0.2418E-82
-40.840  0.2640E-83  0.2423E-82
-40.820  0.2640E-83  0.2429E-82
-40.800  0.2640E-83  0.2434E-82
-40.780  0.2640E-83  0.2439E-82
-40.760  0.2640E-83  0.2444E-82
-40.740  0.2640E-83  0.2450E-82
-40.720  0.2640E-83  0.2455E-82
-40.700  0.2640E-83  0.2460E-82
-40.680  0.2640E-83  0.2466E-82
-40.660  0.2640E-83  0.2471E-82
-40.640  0.2640E-83  0.2476E-82
-40.620  0.2640E-83  0.2481E-82
-40.600  0.2640E-83  0.2487E-82
-40.580  0.2640E-83  0.2492E-82
-40.560  0.2640E-83  0.2497E-82
-40.540  0.2640E-83  0.2503E-82
-40.520  0.2640E-83  0.2508E-82
-40.500  0.2640E-83  0.2513E-82
-40.480  0.2640E-83  0.2518E-82
-40.460  0.2640E-83  0.2524E-82
-40.440  0.2640E-83  0.2529E-82
-40.420  0.2640E-83  0.2534E-82
-40.400  0.2640E-83  0.2539E-82
-40.380  0.2640E-83  0.2545E-82
-40.360  0.2640E-83  0.2550E-82
-40.340  0.2640E-83  0.2555E-82
-40.320  0.2640E-83  0.2561E-82
-40.300  0.2640E-83  0.2566E-82
-40.280  0.2640E-83  0.2571E-82
-40.260  0.2640E-83  0.2576E-82
-40.240  0.2640E-83  0.2582E-82
-40.220  0.2640E-83  0.2587E-82
-40.200  0.2640E-83  0.2592E-82
-40.180  0.2640E-83  0.2598E-82
-40.160  0.2640E-83  0.2603E-82
-40.140  0.2640E-83  0.2608E-82
-40.120  0.2640E-83  0.2613E-82
-40.100  0.2640E-83  0.2619E-82
-40.080  0.2640E-83  0.2624E-82
-40.060  0.2640E-83  0.2629E-82
-40.040  0.2640E-83  0.2634E-82
-40.020  0.2640E-83  0.2640E-82
-40.000  0.2640E-83  0.2645E-82
-39.980  0.2640E-83  0.2650E-82
-39.960  0.2640E-83  0.2656E-82
-39.940  0.2640E-83  0.2661E-82
-39.920  0.2640E-83  0.2666E-82
-39.900  0.2640E-83  0.2671E-82
-39.880  0.2640E-83  0.2677E-82
-39.860  0.2640E-83  0.2682E-82
-39.840  0.2640E-83  0.2687E-82
-39.820  0.2640E-83  0.2693E-82
-39.800  0.2640E-83  0.2698E-82
-39.780  0.2640E-83  0.2703E-82
-39.760  0.2640E-83  0.2708E-82
-39.740  0.2640E-83  0.2714E-82
-39.720  0.2640E-83  0.2719E-82
-39.700  0.2640E-83  0.2724E-82
-39.680  0.2640E-83  0.2730E-82
-39.660  0.2640E-83  0.2735E-82
-39.640  0.2640E-83  0.2740E-82
-39.620  0.2640E-83  0.2745E-82
-39.600  0.2640E-83  0.2751E-82
-39.580  0.2640E-83  0.2756E-82
-39.560  0.2640E-83  0.2761E-82
-39.540  0.2640E-83  0.2766E-82
-39.520  0.2640E-83  0.2772E-82
-39.500  0.2640E-83  0.2777E-82
-39.480  0.2640E-83  0.2782E-82
-39.460  0.2640E-83  0.2788E-82
-39.440  0.2640E-83  0.2793E-82
-39.420  0.2640E-83  0.2798E-82
-39.400  0.2640E-83  0.2803E-82
-39.380  0.2640E-83  0.2809E-82
-39.360  0.2640E-83  0.2814E-82
-39.340  0.2640E-83  0.2819E-82
-39.320  0.2640E-83  0.2825E-82
-39.300  0.2640E-83  0.2830E-82
-39.280  0.2640E-83  0.2835E-82
-39.260  0.2640E-83  0.2840E-82
-39.240  0.2640E-83  0.2846E-82
-39.220  0.2640E-83  0.2851E-82
-39.200  0.2640E-83  0.2856E-82
-39.180  0.2640E-83  0.2862E-82
-39.160  0.2640E-83  0.2867E-82
-39.140  0.2640E-83  0.2872E-82
-39.120  0.2640E-83  0.2877E-82
-39.100  0.2640E-83  0.2883E-82
-39.080  0.2640E-83  0.2888E-82
-39.060  0.2640E-83  0.2893E-82
-39.040  0.2640E-83  0.2898E-82
-39.020  0.2640E-83  0.2904E-82
-39.000  0.2640E-83  0.2909E-82
-38.980  0.2640E-83  0.2914E-82
-38.960  0.2640E-83  0.2920E-82
-38.940  0.2640E-83  0.2925E-82
-38.920  0.2640E-83  0.2930E-82
-38.900  0.2640E-83  0.2935E-82
-38.880  0.2640E-83  0.2941E-82
-38.860  0.2640E-83  0.2946E-82
-38.840  0.2640E-83  0.2951E-82
-38.820  0.2640E-83  0.2957E-82
-38.800  0.2640E-83  0.2962E-82
-38.780  0.2640E-83  0.2967E-82
-38.760  0.2640E-83  0.2972E-82
-38.740  0.2640E-83  0.2978E-82
-38.720  0.2640E-83  0.2983E-82
-38.700  0.2640E-83  0.2988E-82
-38.680  0.2640E-83  0.2993E-82
-38.660  0.2640E-83  0.2999E-82
-38.640  0.2640E-83  0.3004E-82
-38.620  0.2640E-83  0.3009E-82
-38.600  0.2640E-83  0.3015E-82
-38.580  0.2640E-83  0.3020E-82
-38.560  0.2640E-83  0.3025E-82
-38.540  0.2640E-83  0.3030E-82
-38.520  0.2640E-83  0.3036E-82
-38.500  0.2640E-83  0.3041E-82
-38.480  0.2640E-83  0.3046E-82
-38.460  0.2640E-83  0.3052E-82
-38.440  0.2640E-83  0.3057E-82
-38.420  0.2640E-83  0.3062E-82
-38.400  0.2640E-83  0.3067E-82
-38.380  0.2640E-83  0.3073E-82
-38.360  0.2640E-83  0.3078E-82
-38.340  0.2640E-83  0.3083E-82
-38.320  0.2640E-83  0.3089E-82
-38.300  0.2640E-83  0.3094E-82
-38.280  0.2640E-83  0.3099E-82
-38.260  0.2640E-83  0.3104E-82
-38.240  0.2640E-83  0.3110E-82
-38.220  0.2640E-83  0.3115E-82
-38.200  0.2640E-83  0.3120E-82
-38.180  0.2640E-83  0.3125E-82
-38.160  0.2640E-83  0.3131E-82
-38.140  0.2640E-83  0.3136E-82
-38.120  0.2640E-83  0.3141E-82
-38.100  0.2640E-83  0.3147E-82
-38.080  0.2640E-83  0.3152E-82
-38.060  0.2640E-83  0.3157E-82
-38.040  0.2640E-83  0.3162E-82
-38.020  0.2640E-83  0.3168E-82
-38.000  0.2640E-83  0.3173E-82
-37.980  0.2640E-83  0.3178E-82
-37.960  0.2640E-83  0.3184E-82
-37.940  0.2640E-83  0.3189E-82
-37.920  0.2640E-83  0.3194E-82
-37.900  0.2640E-83  0.3199E-82
-37.880  0.2640E-83  0.3205E-82
-37.860  0.2640E-83  0.3210E-82
-37.840  0.2640E-83  0.3215E-82
-37.820  0.2640E-83  0.3221E-82
-37.800  0.2640E-83  0.3226E-82
-37.780  0.2640E-83  0.3231E-82
-37.760  0.2640E-83  0.3236E-82
-37.740  0.2640E-83  0.3242E-82
-37.720  0.2640E-83  0.3247E-82
-37.700  0.2640E-83  0.3252E-82
-37.680  0.2640E-83  0.3257E-82
-37.660  0.2640E-83  0.3263E-82
-37.640  0.2640E-83  0.3268E-82
-37.620  0.2640E-83  0.3273E-82
-37.600  0.2640E-83  0.3279E-82
-37.580  0.2640E-83  0.3284E-82
-37.560  0.2640E-83  0.3289E-82
-37.540  0.2640E-83  0.3294E-82
-37.520  0.2640E-83  0.3300E-82
-37.500  0.2640E-83  0.3305E-82
-37.480  0.2640E-83  0.3310E-82
-37.460  0.2640E-83  0.3316E-82
-37.440  0.2640E-83  0.3321E-82
-37.420  0.2640E-83  0.3326E-82
-37.400  0.2640E-83  0.3331E-82
-37.380  0.2640E-83  0.3337E-82
-37.360  0.2640E-83  0.3342E-82
-37.340  0.2640E-83  0.3347E-82
-37.320  0.2640E-83  0.3353E-82
-37.300  0.2640E-83  0.3358E-82
-37.280  0.2640E-83  0.3363E-82
-37.260  0.2640E-83  0.3368E-82
-37.240  0.2640E-83  0.3374E-82
-37.220  0.2640E-83  0.3379E-82
-37.200  0.2640E-83  0.3384E-82
-37.180  0.2640E-83  0.3389E-82
-37.160  0.2640E-83  0.3395E-82
-37.140  0.2640E-83  0.3400E-82
-37.120  0.2640E-83  0.3405E-82
-37.100  0.2640E-83  0.3411E-82
-37.080  0.2640E-83  0.3416E-82
-37.060  0.2640E-83  0.3421E-82
-37.040  0.2640E-83  0.3426E-82
-37.020  0.2640E-83  0.3432E-82
-37.000  0.2640E-83  0.3437E-82
-36.980  0.2640E-83  0.3442E-82
-36.960  0.2640E-83  0.3448E-82
-36.940  0.2640E-83  0.3453E-82
-36.920  0.2640E-83  0.3458E-82
-36.900  0.2640E-83  0.3463E-82
-36.880  0.2640E-83  0.3469E-82
-36.860  0.2640E-83  0.3474E-82
-36.840  0.2640E-83  0.3479E-82
-36.820  0.2640E-83  0.3484E-82
-36.800  0.2640E-83  0.3490E-82
-36.780  0.2640E-83  0.3495E-82
-36.760  0.2640E-83  0.3500E-82
-36.740  0.2640E-83  0.3506E-82
-36.720  0.2640E-83  0.3511E-82
-36.700  0.2640E-83  0.3516E-82
-36.680  0.2640E-83  0.3521E-82
-36.660  0.2640E-83  0.3527E-82
-36.640  0.2640E-83  0.3532E-82
-36.620  0.2640E-83  0.3537E-82
-36.600  0.2640E-83  0.3543E-82
-36.580  0.2640E-83  0.3548E-82
-36.560  0.2640E-83  0.3553E-82
-36.540  0.2640E-83  0.3558E-82
-36.520  0.2640E-83  0.3564E-82
-36.500  0.2640E-83  0.3569E-82
-36.480  0.2640E-83  0.3574E-82
-36.460  0.2640E-83  0.3580E-82
-36.440  0.2640E-83  0.3585E-82
-36.420  0.2640E-83  0.3590E-82
-36.400  0.2640E-83  0.3595E-82
-36.380  0.2640E-83  0.3601E-82
-36.360  0.2640E-83  0.3606E-82
-36.340  0.2640E-83  0.3611E-82
-36.320  0.2640E-83  0.3616E-82
-36.300  0.2640E-83  0.3622E-82
-36.280  0.2640E-83  0.3627E-82
-36.260  0.2640E-83  0.3632E-82
-36.240  0.2640E-83  0.3638E-82
-36.220  0.2640E-83  0.3643E-82
-36.200  0.2640E-83  0.3648E-82
-36.180  0.2640E-83  0.3653E-82
-36.160  0.2640E-83  0.3659E-82
-36.140  0.2640E-83  0.3664E-82
-36.120  0.2640E-83  0.3669E-82
-36.100  0.2640E-83  0.3675E-82
-36.080  0.2640E-83  0.3680E-82
-36.060  0.2640E-83  0.3685E-82
-36.040  0.2640E-83  0.3690E-82
-36.020  0.2640E-83  0.3696E-82
-36.000  0.2640E-83  0.3701E-82
-35.980  0.2640E-83  0.3706E-82
-35.960  0.2640E-83  0.3712E-82
-35.940  0.2640E-83  0.3717E-82
-35.920  0.2640E-83  0.3722E-82
-35.900  0.2640E-83  0.3727E-82
-35.880  0.2640E-83  0.3733E-82
-35.860  0.2640E-83  0.3738E-82
-35.840  0.2640E-83  0.3743E-82
-35.820  0.2640E-83  0.3748E-82
-35.800  0.2640E-83  0.3754E-82
-35.780  0.2640E-83  0.3759E-82
-35.760  0.2640E-83  0.3764E-82
-35.740  0.2640E-83  0.3770E-82
-35.720  0.2640E-83  0.3775E-82
-35.700  0.2640E-83  0.3780E-82
-35.680  0.2640E-83  0.3785E-82
-35.660  0.2640E-83  0.3791E-82
-35.640  0.2640E-83  0.3796E-82
-35.620  0.2640E-83  0.3801E-82
-35.600  0.2640E-83  0.3807E-82
-35.580  0.2640E-83  0.3812E-82
-35.560  0.2640E-83  0.3817E-82
-35.540  0.2640E-83  0.3822E-82
-35.520  0.2640E-83  0.3828E-82
-35.500  0.2640E-83  0.3833E-82
-35.480  0.2640E-83  0.3838E-82
-35.460  0.2640E-83  0.3844E-82
-35.440  0.2640E-83  0.3849E-82
-35.420  0.2640E-83  0.3854E-82
-35.400  0.2640E-83  0.3859E-82
-35.380  0.2640E-83  0.3865E-82
-35.360  0.2640E-83  0.3870E-82
-35.340  0.2640E-83  0.3875E-82
-35.320  0.2640E-83  0.3880E-82
-35.300  0.2640E-83  0.3886E-82
-35.280  0.2640E-83  0.3891E-82
-35.260  0.2640E-83  0.3896E-82
-35.240  0.2640E-83  0.3902E-82
-35.220  0.2640E-83  0.3907E-82
-35.200  0.2640E-83  0.3912E-82
-35.180  0.2640E-83  0.3917E-82
-35.160  0.2640E-83  0.3923E-82
-35.140  0.2640E-83  0.3928E-82
-35.120  0.2640E-83  0.3933E-82
-35.100  0.2640E-83  0.3939E-82
-35.080  0.2640E-83  0.3944E-82
-35.060  0.2640E-83  0.3949E-82
-35.040  0.2640E-83  0.3954E-82
-35.020  0.2640E-83  0.3960E-82
-35.000  0.2640E-83  0.3965E-82
-34.980  0.2640E-83  0.3970E-82
-34.960  0.2640E-83  0.3975E-82
-34.940  0.2640E-83  0.3981E-82
-34.920  0.2640E-83  0.3986E-82
-34.900  0.2640E-83  0.3991E-82
-34.880  0.2640E-83  0.3997E-82
-34.860  0.2640E-83  0.4002E-82
-34.840  0.2640E-83  0.4007E-82
-34.820  0.2640E-83  0.4012E-82
-34.800  0.2640E-83  0.4018E-82
-34.780  0.2640E-83  0.4023E-82
-34.760  0.2640E-83  0.4028E-82
-34.740  0.2640E-83  0.4034E-82
-34.720  0.2640E-83  0.4039E-82
-34.700  0.2640E-83  0.4044E-82
-34.680  0.2640E-83  0.4049E-82
-34.660  0.2640E-83  0.4055E-82
-34.640  0.2640E-83  0.4060E-82
-34.620  0.2640E-83  0.4065E-82
-34.600  0.2640E-83  0.4071E-82
-34.580  0.2640E-83  0.4076E-82
-34.560  0.2640E-83  0.4081E-82
-34.540  0.2640E-83  0.4086E-82
-34.520  0.2640E-83  0.4092E-82
-34.500  0.2640E-83  0.4097E-82
-34.480  0.2640E-83  0.4102E-82
-34.460  0.2640E-83  0.4107E-82
-34.440  0.2640E-83  0.4113E-82
-34.420  0.2640E-83  0.4118E-82
-34.400  0.2640E-83  0.4123E-82
-34.380  0.2640E-83  0.4129E-82
-34.360  0.2640E-83  0.4134E-82
-34.340  0.2640E-83  0.4139E-82
-34.320  0.2640E-83  0.4144E-82
-34.300  0.2640E-83  0.4150E-82
-34.280  0.2640E-83  0.4155E-82
-34.260  0.2640E-83  0.4160E-82
-34.240  0.2640E-83  0.4166E-82
-34.220  0.2640E-83  0.4171E-82
-34.200  0.2640E-83  0.4176E-82
-34.180  0.2640E-83  0.4181E-82
-34.160  0.2640E-83  0.4187E-82
-34.140  0.2640E-83  0.4192E-82
-34.120  0.2640E-83  0.4197E-82
-34.100  0.2640E-83  0.4203E-82
-34.080  0.2640E-83  0.4208E-82
-34.060  0.2640E-83  0.4213E-82
-34.040  0.2640E-83  0.4218E-82
-34.020  0.2640E-83  0.4224E-82
-34.000  0.2640E-83  0.4229E-82
-33.980  0.2640E-83  0.4234E-82
-33.960  0.2640E-83  0.4239E-82
-33.940  0.2640E-83  0.4245E-82
-33.920  0.2640E-83  0.4250E-82
-33.900  0.2640E-83  0.4255E-82
-33.880  0.2640E-83  0.4261E-82
-33.860  0.2640E-83  0.4266E-82
-33.840  0.2640E-83  0.4271E-82
-33.820  0.2640E-83  0.4276E-82
-33.800  0.2640E-83  0.4282E-82
-33.780  0.2640E-83  0.4287E-82
-33.760  0.2640E-83  0.4292E-82
-33.740  0.2640E-83  0.4298E-82
-33.720  0.2640E-83  0.4303E-82
-33.700  0.2640E-83  0.4308E-82
-33.680  0.2640E-83  0.4313E-82
-33.660  0.2640E-83  0.4319E-82
-33.640  0.2640E-83  0.4324E-82
-33.620  0.2640E-83  0.4329E-82
-33.600  0.2640E-83  0.4335E-82
-33.580  0.2640E-83  0.4340E-82
-33.560  0.2640E-83  0.4345E-82
-33.540  0.2640E-83  0.4350E-82
-33.520  0.2640E-83  0.4356E-82
-33.500  0.2640E-83  0.4361E-82
-33.480  0.2640E-83  0.4366E-82
-33.460  0.2640E-83  0.4371E-82
-33.440  0.2640E-83  0.4377E-82
-33.420  0.2640E-83  0.4382E-82
-33.400  0.2640E-83  0.4387E-82
-33.380  0.2640E-83  0.4393E-82
-33.360  0.2640E-83  0.4398E-82
-33.340  0.2640E-83  0.4403E-82
-33.320  0.2640E-83  0.4408E-82
-33.300  0.2640E-83  0.4414E-82
-33.280  0.2640E-83  0.4419E-82
-33.260  0.2640E-83  0.4424E-82
-33.240  0.2640E-83  0.4430E-82
-33.220  0.2640E-83  0.4435E-82
-33.200  0.2640E-83  0.4440E-82
-33.180  0.2640E-83  0.4445E-82
-33.160  0.2640E-83  0.4451E-82
-33.140  0.2640E-83  0.4456E-82
-33.120  0.2640E-83  0.4461E-82
-33.100  0.2640E-83  0.4466E-82
-33.080  0.2640E-83  0.4472E-82
-33.060  0.2640E-83  0.4477E-82
-33.040  0.2640E-83  0.4482E-82
-33.020  0.2640E-83  0.4488E-82
-33.000  0.2640E-83  0.4493E-82
-32.980  0.2640E-83  0.4498E-82
-32.960  0.2640E-83  0.4503E-82
-32.940  0.2640E-83  0.4509E-82
-32.920  0.2640E-83  0.4514E-82
-32.900  0.2640E-83  0.4519E-82
-32.880  0.2640E-83  0.4525E-82
-32.860  0.2640E-83  0.4530E-82
-32.840  0.2640E-83  0.4535E-82
-32.820  0.2640E-83  0.4540E-82
-32.800  0.2640E-83  0.4546E-82
-32.780  0.2640E-83  0.4551E-82
-32.760  0.2640E-83  0.4556E-82
-32.740  0.2640E-83  0.4562E-82
-32.720  0.2640E-83  0.4567E-82
-32.700  0.2640E-83  0.4572E-82
-32.680  0.2640E-83  0.4577E-82
-32.660  0.2640E-83  0.4583E-82
-32.640  0.2640E-83  0.4588E-82
-32.620  0.2640E-83  0.4593E-82
-32.600  0.2640E-83  0.4598E-82
-32.580  0.2640E-83  0.4604E-82
-32.560  0.2640E-83  0.4609E-82
-32.540  0.2640E-83  0.4614E-82
-32.520  0.2640E-83  0.4620E-82
-32.500  0.2640E-83  0.4625E-82
-32.480  0.2640E-83  0.4630E-82
-32.460  0.2640E-83  0.4635E-82
-32.440  0.2640E-83  0.4641E-82
-32.420  0.2640E-83  0.4646E-82
-32.400  0.2640E-83  0.4651E-82
-32.380  0.2640E-83  0.4657E-82
-32.360  0.2640E-83  0.4662E-82
-32.340  0.2640E-83  0.4667E-82
-32.320  0.2640E-83  0.4672E-82
-32.300  0.2640E-83  0.4678E-82
-32.280  0.2640E-83  0.4683E-82
-32.260  0.2640E-83  0.4688E-82
-32.240  0.2640E-83  0.4694E-82
-32.220  0.2640E-83  0.4699E-82
-32.200  0.2640E-83  0.4704E-82
-32.180  0.2640E-83  0.4709E-82
-32.160  0.2640E-83  0.4715E-82
-32.140  0.2640E-83  0.4720E-82
-32.120  0.2640E-83  0.4725E-82
-32.100  0.2640E-83  0.4730E-82
-32.080  0.2640E-83  0.4736E-82
-32.060  0.2640E-83  0.4741E-82
-32.040  0.2640E-83  0.4746E-82
-32.020  0.2640E-83  0.4752E-82
-32.000  0.2640E-83  0.4757E-82
-31.980  0.2640E-83  0.4762E-82
-31.960  0.2640E-83  0.4767E-82
-31.940  0.2640E-83  0.4773E-82
-31.920  0.2640E-83  0.4778E-82
-31.900  0.2640E-83  0.4783E-82
-31.880  0.2640E-83  0.4789E-82
-31.860  0.2640E-83  0.4794E-82
-31.840  0.2640E-83  0.4799E-82
-31.820  0.2640E-83  0.4804E-82
-31.800  0.2640E-83  0.4810E-82
-31.780  0.2640E-83  0.4815E-82
-31.760  0.2640E-83  0.4820E-82
-31.740  0.2640E-83  0.4825E-82
-31.720  0.2640E-83  0.4831E-82
-31.700  0.2640E-83  0.4836E-82
-31.680  0.2640E-83  0.4841E-82
-31.660  0.2640E-83  0.4847E-82
-31.640  0.2640E-83  0.4852E-82
-31.620  0.2640E-83  0.4857E-82
-31.600  0.2640E-83  0.4862E-82
-31.580  0.2640E-83  0.4868E-82
-31.560  0.2640E-83  0.4873E-82
-31.540  0.2640E-83  0.4878E-82
-31.520  0.2640E-83  0.4884E-82
-31.500  0.2640E-83  0.4889E-82
-31.480  0.2640E-83  0.4894E-82
-31.460  0.2640E-83  0.4899E-82
-31.440  0.2640E-83  0.4905E-82
-31.420  0.2640E-83  0.4910E-82
-31.400  0.2640E-83  0.4915E-82
-31.380  0.2640E-83  0.4921E-82
-31.360  0.2640E-83  0.4926E-82
-31.340  0.2640E-83  0.4931E-82
-31.320  0.2640E-83  0.4936E-82
-31.300  0.2640E-83  0.4942E-82
-31.280  0.2640E-83  0.4947E-82
-31.260  0.2640E-83  0.4952E-82
-31.240  0.2640E-83  0.4957E-82
-31.220  0.2640E-83  0.4963E-82
-31.200  0.2640E-83  0.4968E-82
-31.180  0.2640E-83  0.4973E-82
-31.160  0.2640E-83  0.4979E-82
-31.140  0.2640E-83  0.4984E-82
-31.120  0.2640E-83  0.4989E-82
-31.100  0.2640E-83  0.4994E-82
-31.080  0.2640E-83  0.5000E-82
-31.060  0.2640E-83  0.5005E-82
-31.040  0.2640E-83  0.5010E-82
-31.020  0.2640E-83  0.5016E-82
-31.000  0.2640E-83  0.5021E-82
-30.980  0.2640E-83  0.5026E-82
-30.960  0.2640E-83  0.5031E-82
-30.940  0.2640E-83  0.5037E-82
-30.920  0.2640E-83  0.5042E-82
-30.900  0.2640E-83  0.5047E-82
-30.880  0.2640E-83  0.5053E-82
-30.860  0.2640E-83  0.5058E-82
-30.840  0.2640E-83  0.5063E-82
-30.820  0.2640E-83  0.5068E-82
-30.800  0.2640E-83  0.5074E-82
-30.780  0.2640E-83  0.5079E-82
-30.760  0.2640E-83  0.5084E-82
-30.740  0.2640E-83  0.5089E-82
-30.720  0.2640E-83  0.5095E-82
-30.700  0.2640E-83  0.5100E-82
-30.680  0.2640E-83  0.5105E-82
-30.660  0.2640E-83  0.5111E-82
-30.640  0.2640E-83  0.5116E-82
-30.620  0.2640E-83  0.5121E-82
-30.600  0.2640E-83  0.5126E-82
-30.580  0.2640E-83  0.5132E-82
-30.560  0.2640E-83  0.5137E-82
-30.540  0.2640E-83  0.5142E-82
-30.520  0.2640E-83  0.5148E-82
-30.500  0.2640E-83  0.5153E-82
-30.480  0.2640E-83  0.5158E-82
-30.460  0.2640E-83  0.5163E-82
-30.440  0.2640E-83  0.5169E-82
-30.420  0.2640E-83  0.5174E-82
-30.400  0.2640E-83  0.5179E-82
-30.380  0.2640E-83  0.5185E-82
-30.360  0.2640E-83  0.5190E-82
-30.340  0.2640E-83  0.5195E-82
-30.320  0.2640E-83  0.5200E-82
-30.300  0.2640E-83  0.5206E-82
-30.280  0.2640E-83  0.5211E-82
-30.260  0.2640E-83  0.5216E-82
-30.240  0.2640E-83  0.5221E-82
-30.220  0.2640E-83  0.5227E-82
-30.200  0.2640E-83  0.5232E-82
-30.180  0.2640E-83  0.5237E-82
-30.160  0.2640E-83  0.5243E-82
-30.140  0.2640E-83  0.5248E-82
-30.120  0.2640E-83  0.5253E-82
-30.100  0.2640E-83  0.5258E-82
-30.080  0.2640E-83  0.5264E-82
-30.060  0.2640E-83  0.5269E-82
-30.040  0.2640E-83  0.5274E-82
-30.020  0.2640E-83  0.5280E-82
-30.000  0.2640E-83  0.5285E-82
-29.980  0.2640E-83  0.5290E-82
-29.960  0.2640E-83  0.5295E-82
-29.940  0.2640E-83  0.5301E-82
-29.920  0.2640E-83  0.5306E-82
-29.900  0.2640E-83  0.5311E-82
-29.880  0.2640E-83  0.5316E-82
-29.860  0.2640E-83  0.5322E-82
-29.840  0.2640E-83  0.5327E-82
-29.820  0.2640E-83  0.5332E-82
-29.800  0.2640E-83  0.5338E-82
-29.780  0.2640E-83  0.5343E-82
-29.760  0.2640E-83  0.5348E-82
-29.740  0.2640E-83  0.5353E-82
-29.720  0.2640E-83  0.5359E-82
-29.700  0.2640E-83  0.5364E-82
-29.680  0.2640E-83  0.5369E-82
-29.660  0.2640E-83  0.5375E-82
-29.640  0.2640E-83  0.5380E-82
-29.620  0.2640E-83  0.5385E-82
-29.600  0.2640E-83  0.5390E-82
-29.580  0.2640E-83  0.5396E-82
-29.560  0.2640E-83  0.5401E-82
-29.540  0.2640E-83  0.5406E-82
-29.520  0.2640E-83  0.5412E-82
-29.500  0.2640E-83  0.5417E-82
-29.480  0.2640E-83  0.5422E-82
-29.460  0.2640E-83  0.5427E-82
-29.440  0.2640E-83  0.5433E-82
-29.420  0.2640E-83  0.5438E-82
-29.400  0.2640E-83  0.5443E-82
-29.380  0.2640E-83  0.5448E-82
-29.360  0.2640E-83  0.5454E-82
-29.340  0.2640E-83  0.5459E-82
-29.320  0.2640E-83  0.5464E-82
-29.300  0.2640E-83  0.5470E-82
-29.280  0.2640E-83  0.5475E-82
-29.260  0.2640E-83  0.5480E-82
-29.240  0.2640E-83  0.5485E-82
-29.220  0.2640E-83  0.5491E-82
-29.200  0.2640E-83  0.5496E-82
-29.180  0.2640E-83  0.5501E-82
-29.160  0.2640E-83  0.5507E-82
-29.140  0.2640E-83  0.5512E-82
-29.120  0.2640E-83  0.5517E-82
-29.100  0.2640E-83  0.5522E-82
-29.080  0.2640E-83  0.5528E-82
-29.060  0.2640E-83  0.5533E-82
-29.040  0.2640E-83  0.5538E-82
-29.020  0.2640E-83  0.5544E-82
-29.000  0.2640E-83  0.5549E-82
-28.980  0.2640E-83  0.5554E-82
-28.960  0.2640E-83  0.5559E-82
-28.940  0.2640E-83  0.5565E-82
-28.920  0.2640E-83  0.5570E-82
-28.900  0.2640E-83  0.5575E-82
-28.880  0.2640E-83  0.5580E-82
-28.860  0.2640E-83  0.5586E-82
-28.840  0.2640E-83  0.5591E-82
-28.820  0.2640E-83  0.5596E-82
-28.800  0.2640E-83  0.5602E-82
-28.780  0.2640E-83  0.5607E-82
-28.760  0.2640E-83  0.5612E-82
-28.740  0.2640E-83  0.5617E-82
-28.720  0.2640E-83  0.5623E-82
-28.700  0.2640E-83  0.5628E-82
-28.680  0.2640E-83  0.5633E-82
-28.660  0.2640E-83  0.5639E-82
-28.640  0.2640E-83  0.5644E-82
-28.620  0.2640E-83  0.5649E-82
-28.600  0.2640E-83  0.5654E-82
-28.580  0.2640E-83  0.5660E-82
-28.560  0.2640E-83  0.5665E-82
-28.540  0.2640E-83  0.5670E-82
-28.520  0.2640E-83  0.5676E-82
-28.500  0.2640E-83  0.5681E-82
-28.480  0.2640E-83  0.5686E-82
-28.460  0.2640E-83  0.5691E-82
-28.440  0.2640E-83  0.5697E-82
-28.420  0.2640E-83  0.5702E-82
-28.400  0.2640E-83  0.5707E-82
-28.380  0.2640E-83  0.5712E-82
-28.360  0.2640E-83  0.5718E-82
-28.340  0.2640E-83  0.5723E-82
-28.320  0.2640E-83  0.5728E-82
-28.300  0.2640E-83  0.5734E-82
-28.280  0.2640E-83  0.5739E-82
-28.260  0.2640E-83  0.5744E-82
-28.240  0.2640E-83  0.5749E-82
-28.220  0.2640E-83  0.5755E-82
-28.200  0.2640E-83  0.5760E-82
-28.180  0.2640E-83  0.5765E-82
-28.160  0.2640E-83  0.5771E-82
-28.140  0.2640E-83  0.5776E-82
-28.120  0.2640E-83  0.5781E-82
-28.100  0.2640E-83  0.5786E-82
-28.080  0.2640E-83  0.5792E-82
-28.060  0.2640E-83  0.5797E-82
-28.040  0.2640E-83  0.5802E-82
-28.020  0.2640E-83  0.5807E-82
-28.000  0.2640E-83  0.5813E-82
-27.980  0.2640E-83  0.5818E-82
-27.960  0.2640E-83  0.5823E-82
-27.940  0.2640E-83  0.5829E-82
-27.920  0.2640E-83  0.5834E-82
-27.900  0.2640E-83  0.5839E-82
-27.880  0.2640E-83  0.5844E-82
-27.860  0.2640E-83  0.5850E-82
-27.840  0.2640E-83  0.5855E-82
-27.820  0.2640E-83  0.5860E-82
-27.800  0.2640E-83  0.5866E-82
-27.780  0.2640E-83  0.5871E-82
-27.760  0.2640E-83  0.5876E-82
-27.740  0.2640E-83  0.5881E-82
-27.720  0.2640E-83  0.5887E-82
-27.700  0.2640E-83  0.5892E-82
-27.680  0.2640E-83  0.5897E-82
-27.660  0.2640E-83  0.5903E-82
-27.640  0.2640E-83  0.5908E-82
-27.620  0.2640E-83  0.5913E-82
-27.600  0.2640E-83  0.5918E-82
-27.580  0.2640E-83  0.5924E-82
-27.560  0.2640E-83  0.5929E-82
-27.540  0.2640E-83  0.5934E-82
-27.520  0.2640E-83  0.5939E-82
-27.500  0.2640E-83  0.5945E-82
-27.480  0.2640E-83  0.5950E-82
-27.460  0.2640E-83  0.5955E-82
-27.440  0.2640E-83  0.5961E-82
-27.420  0.2640E-83  0.5966E-82
-27.400  0.2640E-83  0.5971E-82
-27.380  0.2640E-83  0.5976E-82
-27.360  0.2640E-83  0.5982E-82
-27.340  0.2640E-83  0.5987E-82
-27.320  0.2640E-83  0.5992E-82
-27.300  0.2640E-83  0.5998E-82
-27.280  0.2640E-83  0.6003E-82
-27.260  0.2640E-83  0.6008E-82
-27.240  0.2640E-83  0.6013E-82
-27.220  0.2640E-83  0.6019E-82
-27.200  0.2640E-83  0.6024E-82
-27.180  0.2640E-83  0.6029E-82
-27.160  0.2640E-83  0.6035E-82
-27.140  0.2640E-83  0.6040E-82
-27.120  0.2640E-83  0.6045E-82
-27.100  0.2640E-83  0.6050E-82
-27.080  0.2640E-83  0.6056E-82
-27.060  0.2640E-83  0.6061E-82
-27.040  0.2640E-83  0.6066E-82
-27.020  0.2640E-83  0.6071E-82
-27.000  0.2640E-83  0.6077E-82
-26.980  0.2640E-83  0.6082E-82
-26.960  0.2640E-83  0.6087E-82
-26.940  0.2640E-83  0.6093E-82
-26.920  0.2640E-83  0.6098E-82
-26.900  0.2640E-83  0.6103E-82
-26.880  0.2640E-83  0.6108E-82
-26.860  0.2640E-83  0.6114E-82
-26.840  0.2640E-83  0.6119E-82
-26.820  0.2640E-83  0.6124E-82
-26.800  0.2640E-83  0.6130E-82
-26.780  0.2640E-83  0.6135E-82
-26.760  0.2640E-83  0.6140E-82
-26.740  0.2640E-83  0.6145E-82
-26.720  0.2640E-83  0.6151E-82
-26.700  0.2640E-83  0.6156E-82
-26.680  0.2640E-83  0.6161E-82
-26.660  0.2640E-83  0.6166E-82
-26.640  0.2640E-83  0.6172E-82
-26.620  0.2640E-83  0.6177E-82
-26.600  0.2640E-83  0.6182E-82
-26.580  0.2640E-83  0.6188E-82
-26.560  0.2640E-83  0.6193E-82
-26.540  0.2640E-83  0.6198E-82
-26.520  0.2640E-83  0.6203E-82
-26.500  0.2640E-83  0.6209E-82
-26.480  0.2640E-83  0.6214E-82
-26.460  0.2640E-83  0.6219E-82
-26.440  0.2640E-83  0.6225E-82
-26.420  0.2640E-83  0.6230E-82
-26.400  0.2640E-83  0.6235E-82
-26.380  0.2640E-83  0.6240E-82
-26.360  0.2640E-83  0.6246E-82
-26.340  0.2640E-83  0.6251E-82
-26.320  0.2640E-83  0.6256E-82
-26.300  0.2640E-83  0.6262E-82
-26.280  0.2640E-83  0.6267E-82
-26.260  0.2640E-83  0.6272E-82
-26.240  0.2640E-83  0.6277E-82
-26.220  0.2640E-83  0.6283E-82
-26.200  0.2640E-83  0.6288E-82
-26.180  0.2640E-83  0.6293E-82
-26.160  0.2640E-83  0.6298E-82
-26.140  0.2640E-83  0.6304E-82
-26.120  0.2640E-83  0.6309E-82
-26.100  0.2640E-83  0.6314E-82
-26.080  0.2640E-83  0.6320E-82
-26.060  0.2640E-83  0.6325E-82
-26.040  0.2640E-83  0.6330E-82
-26.020  0.2640E-83  0.6335E-82
-26.000  0.2640E-83  0.6341E-82
-25.980  0.2640E-83  0.6346E-82
-25.960  0.2640E-83  0.6351E-82
-25.940  0.2640E-83  0.6357E-82
-25.920  0.2640E-83  0.6362E-82
-25.900  0.2640E-83  0.6367E-82
-25.880  0.2640E-83  0.6372E-82
-25.860  0.2640E-83  0.6378E-82
-25.840  0.2640E-83  0.6383E-82
-25.820  0.2640E-83  0.6388E-82
-25.800  0.2640E-83  0.6394E-82
-25.780  0.2640E-83  0.6399E-82
-25.760  0.2640E-83  0.6404E-82
-25.740  0.2640E-83  0.6409E-82
-25.720  0.2640E-83  0.6415E-82
-25.700  0.2640E-83  0.6420E-82
-25.680  0.2640E-83  0.6425E-82
-25.660  0.2640E-83  0.6430E-82
-25.640  0.2640E-83  0.6436E-82
-25.620  0.2640E-83  0.6441E-82
-25.600  0.2640E-83  0.6446E-82
-25.580  0.2640E-83  0.6452E-82
-25.560  0.2640E-83  0.6457E-82
-25.540  0.2640E-83  0.6462E-82
-25.520  0.2640E-83  0.6467E-82
-25.500  0.2640E-83  0.6473E-82
-25.480  0.2640E-83  0.6478E-82
-25.460  0.2640E-83  0.6483E-82
-25.440  0.2640E-83  0.6489E-82
-25.420  0.2640E-83  0.6494E-82
-25.400  0.2640E-83  0.6499E-82
-25.380  0.2640E-83  0.6504E-82
-25.360  0.2640E-83  0.6510E-82
-25.340  0.2640E-83  0.6515E-82
-25.320  0.2640E-83  0.6520E-82
-25.300  0.2640E-83  0.6526E-82
-25.280  0.2640E-83  0.6531E-82
-25.260  0.2640E-83  0.6536E-82
-25.240  0.2640E-83  0.6541E-82
-25.220  0.2640E-83  0.6547E-82
-25.200  0.2640E-83  0.6552E-82
-25.180  0.2640E-83  0.6557E-82
-25.160  0.2640E-83  0.6562E-82
-25.140  0.2640E-83  0.6568E-82
-25.120  0.2640E-83  0.6573E-82
-25.100  0.2640E-83  0.6578E-82
-25.080  0.2640E-83  0.6584E-82
-25.060  0.2640E-83  0.6589E-82
-25.040  0.2640E-83  0.6594E-82
-25.020  0.2640E-83  0.6599E-82
-25.000  0.2640E-83  0.6605E-82
-24.980  0.2640E-83  0.6610E-82
-24.960  0.2640E-83  0.6615E-82
-24.940  0.2640E-83  0.6621E-82
-24.920  0.2640E-83  0.6626E-82
-24.900  0.2640E-83  0.6631E-82
-24.880  0.2640E-83  0.6636E-82
-24.860  0.2640E-83  0.6642E-82
-24.840  0.2640E-83  0.6647E-82
-24.820  0.2640E-83  0.6652E-82
-24.800  0.2640E-83  0.6657E-82
-24.780  0.2640E-83  0.6663E-82
-24.760  0.2640E-83  0.6668E-82
-24.740  0.2640E-83  0.6673E-82
-24.720  0.2640E-83  0.6679E-82
-24.700  0.2640E-83  0.6684E-82
-24.680  0.2640E-83  0.6689E-82
-24.660  0.2640E-83  0.6694E-82
-24.640  0.2640E-83  0.6700E-82
-24.620  0.2640E-83  0.6705E-82
-24.600  0.2640E-83  0.6710E-82
-24.580  0.2640E-83  0.6716E-82
-24.560  0.2640E-83  0.6721E-82
-24.540  0.2640E-83  0.6726E-82
-24.520  0.2640E-83  0.6731E-82
-24.500  0.2640E-83  0.6737E-82
-24.480  0.2640E-83  0.6742E-82
-24.460  0.2640E-83  0.6747E-82
-24.440  0.2640E-83  0.6753E-82
-24.420  0.2640E-83  0.6758E-82
-24.400  0.2640E-83  0.6763E-82
-24.380  0.2640E-83  0.6768E-82
-24.360  0.2640E-83  0.6774E-82
-24.340  0.2640E-83  0.6779E-82
-24.320  0.2640E-83  0.6784E-82
-24.300  0.2640E-83  0.6789E-82
-24.280  0.2640E-83  0.6795E-82
-24.260  0.2640E-83  0.6800E-82
-24.240  0.2640E-83  0.6805E-82
-24.220  0.2640E-83  0.6811E-82
-24.200  0.2640E-83  0.6816E-82
-24.180  0.2640E-83  0.6821E-82
-24.160  0.2640E-83  0.6826E-82
-24.140  0.2640E-83  0.6832E-82
-24.120  0.2640E-83  0.6837E-82
-24.100  0.2640E-83  0.6842E-82
-24.080  0.2640E-83  0.6848E-82
-24.060  0.2640E-83  0.6853E-82
-24.040  0.2640E-83  0.6858E-82
-24.020  0.2640E-83  0.6863E-82
-24.000  0.2640E-83  0.6869E-82
-23.980  0.2640E-83  0.6874E-82
-23.960  0.2640E-83  0.6879E-82
-23.940  0.2640E-83  0.6885E-82
-23.920  0.2640E-83  0.6890E-82
-23.900  0.2640E-83  0.6895E-82
-23.880  0.2640E-83  0.6900E-82
-23.860  0.2640E-83  0.6906E-82
-23.840  0.2640E-83  0.6911E-82
-23.820  0.2652E-83  0.6916E-82
-23.800  0.3475E-83  0.6923E-82
-23.780  0.5160E-82  0.7026E-82
-23.760  0.2741E-80  0.1251E-81
-23.740  0.1467E-78  0.3059E-80
-23.720  0.7524E-77  0.1535E-78
-23.700  0.3697E-75  0.7548E-77
-23.680  0.1740E-73  0.3555E-75
-23.660  0.7843E-72  0.1604E-73
-23.640  0.3386E-70  0.6933E-72
-23.620  0.1400E-68  0.2870E-70
-23.600  0.5547E-67  0.1138E-68
-23.580  0.2105E-65  0.4323E-67
-23.560  0.7649E-64  0.1573E-65
-23.540  0.2662E-62  0.5482E-64
-23.520  0.8876E-61  0.1830E-62
-23.500  0.2835E-59  0.5852E-61
-23.480  0.8670E-58  0.1793E-59
-23.460  0.2540E-56  0.5260E-58
-23.440  0.7129E-55  0.1478E-56
-23.420  0.1916E-53  0.3981E-55
-23.400  0.4935E-52  0.1027E-53
-23.380  0.1217E-50  0.2537E-52
-23.360  0.2875E-49  0.6004E-51
-23.340  0.6507E-48  0.1361E-49
-23.320  0.1410E-46  0.2957E-48
-23.300  0.2928E-45  0.6153E-47
-23.280  0.5825E-44  0.1226E-45
-23.260  0.1110E-42  0.2342E-44
-23.240  0.2025E-41  0.4284E-43
-23.220  0.3540E-40  0.7509E-42
-23.200  0.5929E-39  0.1261E-40
-23.180  0.9510E-38  0.2028E-39
-23.160  0.1461E-36  0.3126E-38
-23.140  0.2151E-35  0.4615E-37
-23.120  0.3033E-34  0.6528E-36
-23.100  0.4098E-33  0.8848E-35
-23.080  0.5303E-32  0.1149E-33
-23.060  0.6573E-31  0.1430E-32
-23.040  0.7806E-30  0.1704E-31
-23.020  0.8881E-29  0.1947E-30
-23.000  0.9679E-28  0.2131E-29
-22.980  0.1011E-26  0.2234E-28
-22.960  0.1011E-25  0.2245E-27
-22.940  0.9688E-25  0.2162E-26
-22.920  0.8895E-24  0.1995E-25
-22.900  0.7824E-23  0.1764E-24
-22.880  0.6593E-22  0.1495E-23
-22.860  0.5324E-21  0.1214E-22
-22.840  0.4118E-20  0.9451E-22
-22.820  0.3052E-19  0.7050E-21
-22.800  0.2168E-18  0.5040E-20
-22.780  0.1475E-17  0.3454E-19
-22.760  0.9617E-17  0.2269E-18
-22.740  0.6008E-16  0.1428E-17
-22.720  0.3596E-15  0.8621E-17
-22.700  0.2063E-14  0.4988E-16
-22.680  0.1134E-13  0.2767E-15
-22.660  0.5974E-13  0.1471E-14
-22.640  0.3016E-12  0.7503E-14
-22.620  0.1459E-11  0.3668E-13
-22.600  0.6765E-11  0.1720E-12
-22.580  0.3006E-10  0.7732E-12
-22.560  0.1280E-09  0.3334E-11
-22.540  0.5228E-09  0.1379E-10
-22.520  0.2046E-08  0.5471E-10
-22.500  0.7675E-08  0.2082E-09
-22.480  0.2760E-07  0.7603E-09
-22.460  0.9517E-07  0.2664E-08
-22.440  0.3146E-06  0.8956E-08
-22.420  0.9973E-06  0.2890E-07
-22.400  0.3032E-05  0.8954E-07
-22.380  0.8838E-05  0.2663E-06
-22.360  0.2471E-04  0.7605E-06
-22.340  0.6627E-04  0.2086E-05
-22.320  0.1705E-03  0.5496E-05
-22.300  0.4209E-03  0.1391E-04
-22.280  0.9972E-03  0.3386E-04
-22.260  0.2267E-02  0.7920E-04
-22.240  0.4948E-02  0.1782E-03
-22.220  0.1037E-01  0.3856E-03
-22.200  0.2087E-01  0.8030E-03
-22.180  0.4035E-01  0.1610E-02
-22.160  0.7497E-01  0.3109E-02
-22.140  0.1339E+00  0.5787E-02
-22.120  0.2300E+00  0.1039E-01
-22.100  0.3799E+00  0.1799E-01
-22.080  0.6043E+00  0.3007E-01
-22.060  0.9257E+00  0.4859E-01
-22.040  0.1367E+01  0.7592E-01
-22.020  0.1947E+01  0.1149E+00
-22.000  0.2676E+01  0.1684E+00
-21.980  0.3557E+01  0.2395E+00
-21.960  0.4573E+01  0.3310E+00
-21.940  0.5698E+01  0.4449E+00
-21.920  0.6891E+01  0.5828E+00
-21.900  0.8101E+01  0.7448E+00
-21.880  0.9279E+01  0.9304E+00
-21.860  0.1038E+02  0.1138E+01
-21.840  0.1136E+02  0.1365E+01
-21.820  0.1219E+02  0.1609E+01
-21.800  0.1288E+02  0.1867E+01
-21.780  0.1342E+02  0.2135E+01
-21.760  0.1383E+02  0.2412E+01
-21.740  0.1413E+02  0.2694E+01
-21.720  0.1433E+02  0.2981E+01
-21.700  0.1447E+02  0.3270E+01
-21.680  0.1456E+02  0.3561E+01
-21.660  0.1461E+02  0.3853E+01
-21.640  0.1464E+02  0.4146E+01
-21.620  0.1466E+02  0.4440E+01
-21.600  0.1468E+02  0.4733E+01
-21.580  0.1468E+02  0.5027E+01
-21.560  0.1469E+02  0.5321E+01
-21.540  0.1469E+02  0.5614E+01
-21.520  0.1469E+02  0.5908E+01
-21.500  0.1470E+02  0.6202E+01
-21.480  0.1470E+02  0.6496E+01
-21.460  0.1470E+02  0.6790E+01
-21.440  0.1471E+02  0.7084E+01
-21.420  0.1471E+02  0.7379E+01
-21.400  0.1471E+02  0.7673E+01
-21.380  0.1472E+02  0.7967E+01
-21.360  0.1472E+02  0.8262E+01
-21.340  0.1472E+02  0.8556E+01
-21.320  0.1473E+02  0.8851E+01
-21.300  0.1473E+02  0.9145E+01
-21.280  0.1473E+02  0.9440E+01
-21.260  0.1474E+02  0.9735E+01
-21.240  0.1474E+02  0.1003E+02
-21.220  0.1474E+02  0.1032E+02
-21.200  0.1475E+02  0.1062E+02
-21.180  0.1475E+02  0.1091E+02
-21.160  0.1475E+02  0.1121E+02
-21.140  0.1476E+02  0.1150E+02
-21.120  0.1476E+02  0.1180E+02
-21.100  0.1477E+02  0.1209E+02
-21.080  0.1477E+02  0.1239E+02
-21.060  0.1478E+02  0.1269E+02
-21.040  0.1478E+02  0.1298E+02
-21.020  0.1478E+02  0.1328E+02
-21.000  0.1478E+02  0.1357E+02
-20.980  0.1478E+02  0.1387E+02
-20.960  0.1479E+02  0.1416E+02
-20.940  0.1479E+02  0.1446E+02
-20.920  0.1480E+02  0.1476E+02
-20.900  0.1481E+02  0.1505E+02
-20.880  0.1482E+02  0.1535E+02
-20.860  0.1482E+02  0.1564E+02
-20.840  0.1481E+02  0.1594E+02
-20.820  0.1481E+02  0.1624E+02
-20.800  0.1480E+02  0.1653E+02
-20.780  0.1481E+02  0.1683E+02
-20.760  0.1482E+02  0.1713E+02
-20.740  0.1484E+02  0.1742E+02
-20.720  0.1486E+02  0.1772E+02
-20.700  0.1487E+02  0.1802E+02
-20.680  0.1487E+02  0.1831E+02
-20.660  0.1486E+02  0.1861E+02
-20.640  0.1484E+02  0.1891E+02
-20.620  0.1483E+02  0.1921E+02
-20.600  0.1483E+02  0.1950E+02
-20.580  0.1484E+02  0.1980E+02
-20.560  0.1486E+02  0.2010E+02
-20.540  0.1489E+02  0.2039E+02
-20.520  0.1491E+02  0.2069E+02
-20.500  0.1493E+02  0.2099E+02
-20.480  0.1492E+02  0.2129E+02
-20.460  0.1491E+02  0.2159E+02
-20.440  0.1488E+02  0.2188E+02
-20.420  0.1486E+02  0.2218E+02
-20.400  0.1485E+02  0.2248E+02
-20.380  0.1486E+02  0.2278E+02
-20.360  0.1489E+02  0.2307E+02
-20.340  0.1492E+02  0.2337E+02
-20.320  0.1496E+02  0.2367E+02
-20.300  0.1499E+02  0.2397E+02
-20.280  0.1499E+02  0.2427E+02
-20.260  0.1498E+02  0.2457E+02
-20.240  0.1495E+02  0.2487E+02
-20.220  0.1493E+02  0.2517E+02
-20.200  0.1491E+02  0.2547E+02
-20.180  0.1490E+02  0.2576E+02
-20.160  0.1491E+02  0.2606E+02
-20.140  0.1494E+02  0.2636E+02
-20.120  0.1498E+02  0.2666E+02
-20.100  0.1502E+02  0.2696E+02
-20.080  0.1505E+02  0.2726E+02
-20.060  0.1507E+02  0.2756E+02
-20.040  0.1507E+02  0.2786E+02
-20.020  0.1505E+02  0.2817E+02
-20.000  0.1503E+02  0.2847E+02
-19.980  0.1499E+02  0.2877E+02
-19.960  0.1497E+02  0.2907E+02
-19.940  0.1495E+02  0.2936E+02
-19.920  0.1496E+02  0.2966E+02
-19.900  0.1497E+02  0.2996E+02
-19.880  0.1501E+02  0.3026E+02
-19.860  0.1505E+02  0.3056E+02
-19.840  0.1509E+02  0.3087E+02
-19.820  0.1513E+02  0.3117E+02
-19.800  0.1515E+02  0.3147E+02
-19.780  0.1515E+02  0.3177E+02
-19.760  0.1514E+02  0.3208E+02
-19.740  0.1511E+02  0.3238E+02
-19.720  0.1507E+02  0.3268E+02
-19.700  0.1502E+02  0.3298E+02
-19.680  0.1499E+02  0.3328E+02
-19.660  0.1497E+02  0.3358E+02
-19.640  0.1498E+02  0.3388E+02
-19.620  0.1502E+02  0.3418E+02
-19.600  0.1509E+02  0.3448E+02
-19.580  0.1517E+02  0.3479E+02
-19.560  0.1525E+02  0.3509E+02
-19.540  0.1530E+02  0.3540E+02
-19.520  0.1532E+02  0.3570E+02
-19.500  0.1529E+02  0.3601E+02
-19.480  0.1522E+02  0.3631E+02
-19.460  0.1513E+02  0.3662E+02
-19.440  0.1503E+02  0.3692E+02
-19.420  0.1496E+02  0.3722E+02
-19.400  0.1493E+02  0.3751E+02
-19.380  0.1496E+02  0.3781E+02
-19.360  0.1504E+02  0.3811E+02
-19.340  0.1515E+02  0.3842E+02
-19.320  0.1528E+02  0.3872E+02
-19.300  0.1539E+02  0.3903E+02
-19.280  0.1546E+02  0.3934E+02
-19.260  0.1548E+02  0.3965E+02
-19.240  0.1545E+02  0.3996E+02
-19.220  0.1537E+02  0.4027E+02
-19.200  0.1525E+02  0.4057E+02
-19.180  0.1513E+02  0.4087E+02
-19.160  0.1502E+02  0.4117E+02
-19.140  0.1495E+02  0.4147E+02
-19.120  0.1494E+02  0.4177E+02
-19.100  0.1500E+02  0.4207E+02
-19.080  0.1512E+02  0.4237E+02
-19.060  0.1527E+02  0.4268E+02
-19.040  0.1544E+02  0.4299E+02
-19.020  0.1558E+02  0.4330E+02
-19.000  0.1567E+02  0.4361E+02
-18.980  0.1568E+02  0.4393E+02
-18.960  0.1562E+02  0.4424E+02
-18.940  0.1548E+02  0.4455E+02
-18.920  0.1531E+02  0.4486E+02
-18.900  0.1514E+02  0.4516E+02
-18.880  0.1502E+02  0.4546E+02
-18.860  0.1496E+02  0.4576E+02
-18.840  0.1498E+02  0.4606E+02
-18.820  0.1509E+02  0.4636E+02
-18.800  0.1525E+02  0.4666E+02
-18.780  0.1543E+02  0.4697E+02
-18.760  0.1560E+02  0.4728E+02
-18.740  0.1573E+02  0.4760E+02
-18.720  0.1579E+02  0.4791E+02
-18.700  0.1578E+02  0.4823E+02
-18.680  0.1571E+02  0.4854E+02
-18.660  0.1559E+02  0.4886E+02
-18.640  0.1546E+02  0.4917E+02
-18.620  0.1533E+02  0.4947E+02
-18.600  0.1524E+02  0.4978E+02
-18.580  0.1518E+02  0.5008E+02
-18.560  0.1517E+02  0.5038E+02
-18.540  0.1521E+02  0.5069E+02
-18.520  0.1529E+02  0.5099E+02
-18.500  0.1540E+02  0.5130E+02
-18.480  0.1553E+02  0.5161E+02
-18.460  0.1566E+02  0.5193E+02
-18.440  0.1577E+02  0.5224E+02
-18.420  0.1585E+02  0.5256E+02
-18.400  0.1588E+02  0.5288E+02
-18.380  0.1585E+02  0.5319E+02
-18.360  0.1578E+02  0.5351E+02
-18.340  0.1567E+02  0.5382E+02
-18.320  0.1555E+02  0.5413E+02
-18.300  0.1545E+02  0.5444E+02
-18.280  0.1537E+02  0.5475E+02
-18.260  0.1535E+02  0.5506E+02
-18.240  0.1538E+02  0.5536E+02
-18.220  0.1546E+02  0.5567E+02
-18.200  0.1556E+02  0.5598E+02
-18.180  0.1567E+02  0.5630E+02
-18.160  0.1576E+02  0.5661E+02
-18.140  0.1584E+02  0.5693E+02
-18.120  0.1588E+02  0.5725E+02
-18.100  0.1589E+02  0.5757E+02
-18.080  0.1589E+02  0.5788E+02
-18.060  0.1588E+02  0.5820E+02
-18.040  0.1588E+02  0.5852E+02
-18.020  0.1588E+02  0.5884E+02
-18.000  0.1588E+02  0.5915E+02
-17.980  0.1588E+02  0.5947E+02
-17.960  0.1586E+02  0.5979E+02
-17.940  0.1582E+02  0.6010E+02
-17.920  0.1576E+02  0.6042E+02
-17.900  0.1570E+02  0.6073E+02
-17.880  0.1564E+02  0.6105E+02
-17.860  0.1562E+02  0.6136E+02
-17.840  0.1564E+02  0.6167E+02
-17.820  0.1573E+02  0.6199E+02
-17.800  0.1586E+02  0.6230E+02
-17.780  0.1602E+02  0.6262E+02
-17.760  0.1620E+02  0.6295E+02
-17.740  0.1635E+02  0.6327E+02
-17.720  0.1645E+02  0.6360E+02
-17.700  0.1648E+02  0.6393E+02
-17.680  0.1645E+02  0.6426E+02
-17.660  0.1635E+02  0.6459E+02
-17.640  0.1622E+02  0.6491E+02
-17.620  0.1607E+02  0.6524E+02
-17.600  0.1593E+02  0.6555E+02
-17.580  0.1583E+02  0.6587E+02
-17.560  0.1578E+02  0.6619E+02
-17.540  0.1579E+02  0.6650E+02
-17.520  0.1586E+02  0.6682E+02
-17.500  0.1598E+02  0.6714E+02
-17.480  0.1614E+02  0.6746E+02
-17.460  0.1633E+02  0.6779E+02
-17.440  0.1653E+02  0.6812E+02
-17.420  0.1671E+02  0.6845E+02
-17.400  0.1687E+02  0.6879E+02
-17.380  0.1698E+02  0.6913E+02
-17.360  0.1704E+02  0.6947E+02
-17.340  0.1703E+02  0.6981E+02
-17.320  0.1695E+02  0.7015E+02
-17.300  0.1680E+02  0.7049E+02
-17.280  0.1662E+02  0.7082E+02
-17.260  0.1643E+02  0.7115E+02
-17.240  0.1626E+02  0.7147E+02
-17.220  0.1616E+02  0.7180E+02
-17.200  0.1615E+02  0.7212E+02
-17.180  0.1626E+02  0.7244E+02
-17.160  0.1649E+02  0.7277E+02
-17.140  0.1680E+02  0.7311E+02
-17.120  0.1717E+02  0.7345E+02
-17.100  0.1754E+02  0.7380E+02
-17.080  0.1785E+02  0.7416E+02
-17.060  0.1806E+02  0.7452E+02
-17.040  0.1816E+02  0.7489E+02
-17.020  0.1815E+02  0.7525E+02
-17.000  0.1804E+02  0.7561E+02
-16.980  0.1789E+02  0.7597E+02
-16.960  0.1774E+02  0.7632E+02
-16.940  0.1765E+02  0.7667E+02
-16.920  0.1764E+02  0.7703E+02
-16.900  0.1775E+02  0.7738E+02
-16.880  0.1797E+02  0.7774E+02
-16.860  0.1828E+02  0.7811E+02
-16.840  0.1867E+02  0.7848E+02
-16.820  0.1912E+02  0.7886E+02
-16.800  0.1960E+02  0.7926E+02
-16.780  0.2010E+02  0.7966E+02
-16.760  0.2060E+02  0.8007E+02
-16.740  0.2107E+02  0.8049E+02
-16.720  0.2151E+02  0.8092E+02
-16.700  0.2186E+02  0.8136E+02
-16.680  0.2210E+02  0.8180E+02
-16.660  0.2218E+02  0.8224E+02
-16.640  0.2208E+02  0.8269E+02
-16.620  0.2178E+02  0.8312E+02
-16.600  0.2130E+02  0.8355E+02
-16.580  0.2065E+02  0.8396E+02
-16.560  0.1989E+02  0.8436E+02
-16.540  0.1907E+02  0.8474E+02
-16.520  0.1826E+02  0.8510E+02
-16.500  0.1751E+02  0.8545E+02
-16.480  0.1684E+02  0.8579E+02
-16.460  0.1627E+02  0.8612E+02
-16.440  0.1581E+02  0.8643E+02
-16.420  0.1543E+02  0.8674E+02
-16.400  0.1510E+02  0.8704E+02
-16.380  0.1480E+02  0.8734E+02
-16.360  0.1449E+02  0.8763E+02
-16.340  0.1415E+02  0.8791E+02
-16.320  0.1376E+02  0.8819E+02
-16.300  0.1331E+02  0.8845E+02
-16.280  0.1280E+02  0.8871E+02
-16.260  0.1225E+02  0.8896E+02
-16.240  0.1168E+02  0.8919E+02
-16.220  0.1112E+02  0.8941E+02
-16.200  0.1061E+02  0.8962E+02
-16.180  0.1019E+02  0.8983E+02
-16.160  0.9869E+01  0.9002E+02
-16.140  0.9666E+01  0.9022E+02
-16.120  0.9573E+01  0.9041E+02
-16.100  0.9567E+01  0.9060E+02
-16.080  0.9612E+01  0.9079E+02
-16.060  0.9662E+01  0.9099E+02
-16.040  0.9672E+01  0.9118E+02
-16.020  0.9605E+01  0.9137E+02
-16.000  0.9439E+01  0.9156E+02
-15.980  0.9167E+01  0.9174E+02
-15.960  0.8805E+01  0.9192E+02
-15.940  0.8381E+01  0.9209E+02
-15.920  0.7936E+01  0.9225E+02
-15.900  0.7510E+01  0.9240E+02
-15.880  0.7143E+01  0.9254E+02
-15.860  0.6863E+01  0.9268E+02
-15.840  0.6690E+01  0.9281E+02
-15.820  0.6632E+01  0.9294E+02
-15.800  0.6687E+01  0.9308E+02
-15.780  0.6850E+01  0.9321E+02
-15.760  0.7111E+01  0.9336E+02
-15.740  0.7458E+01  0.9351E+02
-15.720  0.7882E+01  0.9366E+02
-15.700  0.8371E+01  0.9383E+02
-15.680  0.8915E+01  0.9401E+02
-15.660  0.9500E+01  0.9420E+02
-15.640  0.1011E+02  0.9440E+02
-15.620  0.1074E+02  0.9462E+02
-15.600  0.1136E+02  0.9484E+02
-15.580  0.1197E+02  0.9508E+02
-15.560  0.1255E+02  0.9533E+02
-15.540  0.1310E+02  0.9560E+02
-15.520  0.1362E+02  0.9587E+02
-15.500  0.1410E+02  0.9615E+02
-15.480  0.1454E+02  0.9644E+02
-15.460  0.1494E+02  0.9674E+02
-15.440  0.1529E+02  0.9704E+02
-15.420  0.1558E+02  0.9736E+02
-15.400  0.1581E+02  0.9767E+02
-15.380  0.1596E+02  0.9799E+02
-15.360  0.1604E+02  0.9831E+02
-15.340  0.1604E+02  0.9863E+02
-15.320  0.1597E+02  0.9895E+02
-15.300  0.1585E+02  0.9927E+02
-15.280  0.1570E+02  0.9958E+02
-15.260  0.1556E+02  0.9990E+02
-15.240  0.1544E+02  0.1002E+03
-15.220  0.1538E+02  0.1005E+03
-15.200  0.1539E+02  0.1008E+03
-15.180  0.1546E+02  0.1011E+03
-15.160  0.1559E+02  0.1014E+03
-15.140  0.1575E+02  0.1018E+03
-15.120  0.1592E+02  0.1021E+03
-15.100  0.1607E+02  0.1024E+03
-15.080  0.1620E+02  0.1027E+03
-15.060  0.1630E+02  0.1030E+03
-15.040  0.1637E+02  0.1034E+03
-15.020  0.1643E+02  0.1037E+03
-15.000  0.1649E+02  0.1040E+03
-14.980  0.1656E+02  0.1044E+03
-14.960  0.1666E+02  0.1047E+03
-14.940  0.1683E+02  0.1050E+03
-14.920  0.1707E+02  0.1054E+03
-14.900  0.1740E+02  0.1057E+03
-14.880  0.1785E+02  0.1061E+03
-14.860  0.1841E+02  0.1064E+03
-14.840  0.1906E+02  0.1068E+03
-14.820  0.1977E+02  0.1072E+03
-14.800  0.2049E+02  0.1076E+03
-14.780  0.2116E+02  0.1081E+03
-14.760  0.2173E+02  0.1085E+03
-14.740  0.2215E+02  0.1089E+03
-14.720  0.2239E+02  0.1094E+03
-14.700  0.2244E+02  0.1098E+03
-14.680  0.2231E+02  0.1103E+03
-14.660  0.2204E+02  0.1107E+03
-14.640  0.2165E+02  0.1112E+03
-14.620  0.2119E+02  0.1116E+03
-14.600  0.2071E+02  0.1120E+03
-14.580  0.2023E+02  0.1124E+03
-14.560  0.1978E+02  0.1128E+03
-14.540  0.1940E+02  0.1132E+03
-14.520  0.1908E+02  0.1136E+03
-14.500  0.1884E+02  0.1139E+03
-14.480  0.1868E+02  0.1143E+03
-14.460  0.1858E+02  0.1147E+03
-14.440  0.1854E+02  0.1151E+03
-14.420  0.1853E+02  0.1154E+03
-14.400  0.1852E+02  0.1158E+03
-14.380  0.1848E+02  0.1162E+03
-14.360  0.1840E+02  0.1165E+03
-14.340  0.1825E+02  0.1169E+03
-14.320  0.1803E+02  0.1173E+03
-14.300  0.1775E+02  0.1176E+03
-14.280  0.1743E+02  0.1180E+03
-14.260  0.1710E+02  0.1183E+03
-14.240  0.1679E+02  0.1186E+03
-14.220  0.1652E+02  0.1190E+03
-14.200  0.1632E+02  0.1193E+03
-14.180  0.1620E+02  0.1196E+03
-14.160  0.1615E+02  0.1199E+03
-14.140  0.1616E+02  0.1203E+03
-14.120  0.1621E+02  0.1206E+03
-14.100  0.1628E+02  0.1209E+03
-14.080  0.1634E+02  0.1212E+03
-14.060  0.1639E+02  0.1216E+03
-14.040  0.1641E+02  0.1219E+03
-14.020  0.1639E+02  0.1222E+03
-14.000  0.1633E+02  0.1226E+03
-13.980  0.1625E+02  0.1229E+03
-13.960  0.1614E+02  0.1232E+03
-13.940  0.1600E+02  0.1235E+03
-13.920  0.1583E+02  0.1238E+03
-13.900  0.1565E+02  0.1241E+03
-13.880  0.1545E+02  0.1245E+03
-13.860  0.1524E+02  0.1248E+03
-13.840  0.1503E+02  0.1251E+03
-13.820  0.1484E+02  0.1254E+03
-13.800  0.1467E+02  0.1257E+03
-13.780  0.1456E+02  0.1259E+03
-13.760  0.1449E+02  0.1262E+03
-13.740  0.1449E+02  0.1265E+03
-13.720  0.1454E+02  0.1268E+03
-13.700  0.1464E+02  0.1271E+03
-13.680  0.1477E+02  0.1274E+03
-13.660  0.1492E+02  0.1277E+03
-13.640  0.1505E+02  0.1280E+03
-13.620  0.1514E+02  0.1283E+03
-13.600  0.1517E+02  0.1286E+03
-13.580  0.1513E+02  0.1289E+03
-13.560  0.1500E+02  0.1292E+03
-13.540  0.1479E+02  0.1295E+03
-13.520  0.1452E+02  0.1298E+03
-13.500  0.1420E+02  0.1301E+03
-13.480  0.1388E+02  0.1304E+03
-13.460  0.1357E+02  0.1306E+03
-13.440  0.1333E+02  0.1309E+03
-13.420  0.1317E+02  0.1312E+03
-13.400  0.1311E+02  0.1314E+03
-13.380  0.1315E+02  0.1317E+03
-13.360  0.1328E+02  0.1320E+03
-13.340  0.1346E+02  0.1322E+03
-13.320  0.1367E+02  0.1325E+03
-13.300  0.1387E+02  0.1328E+03
-13.280  0.1404E+02  0.1331E+03
-13.260  0.1414E+02  0.1333E+03
-13.240  0.1417E+02  0.1336E+03
-13.220  0.1413E+02  0.1339E+03
-13.200  0.1401E+02  0.1342E+03
-13.180  0.1384E+02  0.1345E+03
-13.160  0.1363E+02  0.1347E+03
-13.140  0.1342E+02  0.1350E+03
-13.120  0.1322E+02  0.1353E+03
-13.100  0.1307E+02  0.1355E+03
-13.080  0.1299E+02  0.1358E+03
-13.060  0.1301E+02  0.1360E+03
-13.040  0.1314E+02  0.1363E+03
-13.020  0.1337E+02  0.1366E+03
-13.000  0.1371E+02  0.1368E+03
-12.980  0.1413E+02  0.1371E+03
-12.960  0.1461E+02  0.1374E+03
-12.940  0.1510E+02  0.1377E+03
-12.920  0.1558E+02  0.1380E+03
-12.900  0.1602E+02  0.1384E+03
-12.880  0.1639E+02  0.1387E+03
-12.860  0.1670E+02  0.1390E+03
-12.840  0.1694E+02  0.1394E+03
-12.820  0.1710E+02  0.1397E+03
-12.800  0.1720E+02  0.1400E+03
-12.780  0.1725E+02  0.1404E+03
-12.760  0.1725E+02  0.1407E+03
-12.740  0.1722E+02  0.1411E+03
-12.720  0.1715E+02  0.1414E+03
-12.700  0.1707E+02  0.1418E+03
-12.680  0.1698E+02  0.1421E+03
-12.660  0.1690E+02  0.1424E+03
-12.640  0.1685E+02  0.1428E+03
-12.620  0.1682E+02  0.1431E+03
-12.600  0.1683E+02  0.1434E+03
-12.580  0.1687E+02  0.1438E+03
-12.560  0.1694E+02  0.1441E+03
-12.540  0.1702E+02  0.1445E+03
-12.520  0.1710E+02  0.1448E+03
-12.500  0.1719E+02  0.1452E+03
-12.480  0.1729E+02  0.1455E+03
-12.460  0.1739E+02  0.1458E+03
-12.440  0.1752E+02  0.1462E+03
-12.420  0.1766E+02  0.1465E+03
-12.400  0.1780E+02  0.1469E+03
-12.380  0.1793E+02  0.1473E+03
-12.360  0.1804E+02  0.1476E+03
-12.340  0.1809E+02  0.1480E+03
-12.320  0.1808E+02  0.1483E+03
-12.300  0.1799E+02  0.1487E+03
-12.280  0.1782E+02  0.1491E+03
-12.260  0.1761E+02  0.1494E+03
-12.240  0.1736E+02  0.1498E+03
-12.220  0.1710E+02  0.1501E+03
-12.200  0.1689E+02  0.1504E+03
-12.180  0.1673E+02  0.1508E+03
-12.160  0.1667E+02  0.1511E+03
-12.140  0.1671E+02  0.1514E+03
-12.120  0.1686E+02  0.1518E+03
-12.100  0.1711E+02  0.1521E+03
-12.080  0.1743E+02  0.1525E+03
-12.060  0.1780E+02  0.1528E+03
-12.040  0.1819E+02  0.1532E+03
-12.020  0.1854E+02  0.1536E+03
-12.000  0.1882E+02  0.1539E+03
-11.980  0.1900E+02  0.1543E+03
-11.960  0.1907E+02  0.1547E+03
-11.940  0.1900E+02  0.1551E+03
-11.920  0.1881E+02  0.1555E+03
-11.900  0.1853E+02  0.1558E+03
-11.880  0.1817E+02  0.1562E+03
-11.860  0.1779E+02  0.1565E+03
-11.840  0.1742E+02  0.1569E+03
-11.820  0.1711E+02  0.1572E+03
-11.800  0.1689E+02  0.1576E+03
-11.780  0.1679E+02  0.1579E+03
-11.760  0.1681E+02  0.1582E+03
-11.740  0.1694E+02  0.1586E+03
-11.720  0.1719E+02  0.1589E+03
-11.700  0.1753E+02  0.1593E+03
-11.680  0.1793E+02  0.1596E+03
-11.660  0.1837E+02  0.1600E+03
-11.640  0.1882E+02  0.1604E+03
-11.620  0.1924E+02  0.1608E+03
-11.600  0.1959E+02  0.1612E+03
-11.580  0.1984E+02  0.1616E+03
-11.560  0.1995E+02  0.1620E+03
-11.540  0.1990E+02  0.1624E+03
-11.520  0.1967E+02  0.1627E+03
-11.500  0.1929E+02  0.1631E+03
-11.480  0.1879E+02  0.1635E+03
-11.460  0.1822E+02  0.1639E+03
-11.440  0.1767E+02  0.1642E+03
-11.420  0.1720E+02  0.1646E+03
-11.400  0.1688E+02  0.1649E+03
-11.380  0.1676E+02  0.1652E+03
-11.360  0.1684E+02  0.1656E+03
-11.340  0.1714E+02  0.1659E+03
-11.320  0.1760E+02  0.1663E+03
-11.300  0.1818E+02  0.1666E+03
-11.280  0.1881E+02  0.1670E+03
-11.260  0.1944E+02  0.1674E+03
-11.240  0.2000E+02  0.1678E+03
-11.220  0.2043E+02  0.1682E+03
-11.200  0.2071E+02  0.1686E+03
-11.180  0.2080E+02  0.1690E+03
-11.160  0.2070E+02  0.1695E+03
-11.140  0.2042E+02  0.1699E+03
-11.120  0.2000E+02  0.1703E+03
-11.100  0.1949E+02  0.1707E+03
-11.080  0.1895E+02  0.1710E+03
-11.060  0.1843E+02  0.1714E+03
-11.040  0.1801E+02  0.1718E+03
-11.020  0.1773E+02  0.1721E+03
-11.000  0.1762E+02  0.1725E+03
-10.980  0.1768E+02  0.1728E+03
-10.960  0.1789E+02  0.1732E+03
-10.940  0.1822E+02  0.1735E+03
-10.920  0.1864E+02  0.1739E+03
-10.900  0.1912E+02  0.1743E+03
-10.880  0.1960E+02  0.1747E+03
-10.860  0.2008E+02  0.1751E+03
-10.840  0.2052E+02  0.1755E+03
-10.820  0.2090E+02  0.1759E+03
-10.800  0.2120E+02  0.1763E+03
-10.780  0.2139E+02  0.1768E+03
-10.760  0.2144E+02  0.1772E+03
-10.740  0.2132E+02  0.1776E+03
-10.720  0.2105E+02  0.1780E+03
-10.700  0.2062E+02  0.1785E+03
-10.680  0.2009E+02  0.1789E+03
-10.660  0.1951E+02  0.1793E+03
-10.640  0.1897E+02  0.1796E+03
-10.620  0.1853E+02  0.1800E+03
-10.600  0.1827E+02  0.1804E+03
-10.580  0.1823E+02  0.1807E+03
-10.560  0.1841E+02  0.1811E+03
-10.540  0.1879E+02  0.1815E+03
-10.520  0.1934E+02  0.1819E+03
-10.500  0.2000E+02  0.1823E+03
-10.480  0.2068E+02  0.1827E+03
-10.460  0.2134E+02  0.1831E+03
-10.440  0.2190E+02  0.1835E+03
-10.420  0.2232E+02  0.1840E+03
-10.400  0.2258E+02  0.1844E+03
-10.380  0.2265E+02  0.1849E+03
-10.360  0.2254E+02  0.1853E+03
-10.340  0.2225E+02  0.1858E+03
-10.320  0.2183E+02  0.1862E+03
-10.300  0.2131E+02  0.1867E+03
-10.280  0.2076E+02  0.1871E+03
-10.260  0.2025E+02  0.1875E+03
-10.240  0.1984E+02  0.1879E+03
-10.220  0.1960E+02  0.1883E+03
-10.200  0.1959E+02  0.1887E+03
-10.180  0.1984E+02  0.1891E+03
-10.160  0.2037E+02  0.1895E+03
-10.140  0.2115E+02  0.1899E+03
-10.120  0.2214E+02  0.1903E+03
-10.100  0.2331E+02  0.1908E+03
-10.080  0.2457E+02  0.1913E+03
-10.060  0.2586E+02  0.1918E+03
-10.040  0.2712E+02  0.1923E+03
-10.020  0.2830E+02  0.1929E+03
-10.000  0.2936E+02  0.1935E+03
 -9.980  0.3027E+02  0.1941E+03
 -9.960  0.3102E+02  0.1947E+03
 -9.940  0.3161E+02  0.1954E+03
 -9.920  0.3206E+02  0.1960E+03
 -9.900  0.3240E+02  0.1966E+03
 -9.880  0.3267E+02  0.1973E+03
 -9.860  0.3291E+02  0.1980E+03
 -9.840  0.3316E+02  0.1986E+03
 -9.820  0.3345E+02  0.1993E+03
 -9.800  0.3380E+02  0.2000E+03
 -9.780  0.3421E+02  0.2006E+03
 -9.760  0.3466E+02  0.2013E+03
 -9.740  0.3515E+02  0.2020E+03
 -9.720  0.3564E+02  0.2028E+03
 -9.700  0.3610E+02  0.2035E+03
 -9.680  0.3651E+02  0.2042E+03
 -9.660  0.3686E+02  0.2049E+03
 -9.640  0.3714E+02  0.2057E+03
 -9.620  0.3734E+02  0.2064E+03
 -9.600  0.3747E+02  0.2072E+03
 -9.580  0.3754E+02  0.2079E+03
 -9.560  0.3756E+02  0.2087E+03
 -9.540  0.3755E+02  0.2094E+03
 -9.520  0.3752E+02  0.2102E+03
 -9.500  0.3747E+02  0.2109E+03
 -9.480  0.3743E+02  0.2117E+03
 -9.460  0.3740E+02  0.2124E+03
 -9.440  0.3738E+02  0.2132E+03
 -9.420  0.3739E+02  0.2139E+03
 -9.400  0.3744E+02  0.2147E+03
 -9.380  0.3754E+02  0.2154E+03
 -9.360  0.3772E+02  0.2162E+03
 -9.340  0.3798E+02  0.2169E+03
 -9.320  0.3835E+02  0.2177E+03
 -9.300  0.3883E+02  0.2185E+03
 -9.280  0.3940E+02  0.2193E+03
 -9.260  0.4004E+02  0.2201E+03
 -9.240  0.4071E+02  0.2209E+03
 -9.220  0.4135E+02  0.2217E+03
 -9.200  0.4191E+02  0.2226E+03
 -9.180  0.4236E+02  0.2234E+03
 -9.160  0.4267E+02  0.2243E+03
 -9.140  0.4284E+02  0.2251E+03
 -9.120  0.4289E+02  0.2260E+03
 -9.100  0.4287E+02  0.2268E+03
 -9.080  0.4284E+02  0.2277E+03
 -9.060  0.4288E+02  0.2285E+03
 -9.040  0.4306E+02  0.2294E+03
 -9.020  0.4344E+02  0.2303E+03
 -9.000  0.4407E+02  0.2312E+03
 -8.980  0.4495E+02  0.2321E+03
 -8.960  0.4609E+02  0.2330E+03
 -8.940  0.4743E+02  0.2339E+03
 -8.920  0.4890E+02  0.2349E+03
 -8.900  0.5040E+02  0.2359E+03
 -8.880  0.5182E+02  0.2369E+03
 -8.860  0.5305E+02  0.2380E+03
 -8.840  0.5400E+02  0.2391E+03
 -8.820  0.5457E+02  0.2402E+03
 -8.800  0.5474E+02  0.2413E+03
 -8.780  0.5450E+02  0.2424E+03
 -8.760  0.5390E+02  0.2434E+03
 -8.740  0.5302E+02  0.2445E+03
 -8.720  0.5195E+02  0.2455E+03
 -8.700  0.5080E+02  0.2466E+03
 -8.680  0.4965E+02  0.2475E+03
 -8.660  0.4857E+02  0.2485E+03
 -8.640  0.4758E+02  0.2495E+03
 -8.620  0.4669E+02  0.2504E+03
 -8.600  0.4590E+02  0.2513E+03
 -8.580  0.4516E+02  0.2522E+03
 -8.560  0.4446E+02  0.2531E+03
 -8.540  0.4379E+02  0.2540E+03
 -8.520  0.4315E+02  0.2549E+03
 -8.500  0.4255E+02  0.2557E+03
 -8.480  0.4201E+02  0.2565E+03
 -8.460  0.4153E+02  0.2574E+03
 -8.440  0.4114E+02  0.2582E+03
 -8.420  0.4082E+02  0.2590E+03
 -8.400  0.4054E+02  0.2598E+03
 -8.380  0.4028E+02  0.2606E+03
 -8.360  0.3998E+02  0.2614E+03
 -8.340  0.3963E+02  0.2622E+03
 -8.320  0.3919E+02  0.2630E+03
 -8.300  0.3867E+02  0.2638E+03
 -8.280  0.3810E+02  0.2645E+03
 -8.260  0.3752E+02  0.2653E+03
 -8.240  0.3697E+02  0.2660E+03
 -8.220  0.3651E+02  0.2668E+03
 -8.200  0.3617E+02  0.2675E+03
 -8.180  0.3597E+02  0.2682E+03
 -8.160  0.3590E+02  0.2689E+03
 -8.140  0.3593E+02  0.2696E+03
 -8.120  0.3602E+02  0.2704E+03
 -8.100  0.3611E+02  0.2711E+03
 -8.080  0.3616E+02  0.2718E+03
 -8.060  0.3613E+02  0.2725E+03
 -8.040  0.3602E+02  0.2732E+03
 -8.020  0.3581E+02  0.2740E+03
 -8.000  0.3553E+02  0.2747E+03
 -7.980  0.3520E+02  0.2754E+03
 -7.960  0.3483E+02  0.2761E+03
 -7.940  0.3446E+02  0.2768E+03
 -7.920  0.3410E+02  0.2774E+03
 -7.900  0.3376E+02  0.2781E+03
 -7.880  0.3345E+02  0.2788E+03
 -7.860  0.3320E+02  0.2795E+03
 -7.840  0.3299E+02  0.2801E+03
 -7.820  0.3285E+02  0.2808E+03
 -7.800  0.3278E+02  0.2814E+03
 -7.780  0.3276E+02  0.2821E+03
 -7.760  0.3278E+02  0.2827E+03
 -7.740  0.3283E+02  0.2834E+03
 -7.720  0.3288E+02  0.2841E+03
 -7.700  0.3292E+02  0.2847E+03
 -7.680  0.3291E+02  0.2854E+03
 -7.660  0.3286E+02  0.2860E+03
 -7.640  0.3275E+02  0.2867E+03
 -7.620  0.3259E+02  0.2873E+03
 -7.600  0.3238E+02  0.2880E+03
 -7.580  0.3213E+02  0.2886E+03
 -7.560  0.3185E+02  0.2893E+03
 -7.540  0.3155E+02  0.2899E+03
 -7.520  0.3125E+02  0.2905E+03
 -7.500  0.3098E+02  0.2911E+03
 -7.480  0.3075E+02  0.2918E+03
 -7.460  0.3058E+02  0.2924E+03
 -7.440  0.3049E+02  0.2930E+03
 -7.420  0.3046E+02  0.2936E+03
 -7.400  0.3051E+02  0.2942E+03
 -7.380  0.3059E+02  0.2948E+03
 -7.360  0.3070E+02  0.2954E+03
 -7.340  0.3081E+02  0.2960E+03
 -7.320  0.3089E+02  0.2967E+03
 -7.300  0.3093E+02  0.2973E+03
 -7.280  0.3090E+02  0.2979E+03
 -7.260  0.3080E+02  0.2985E+03
 -7.240  0.3063E+02  0.2991E+03
 -7.220  0.3038E+02  0.2997E+03
 -7.200  0.3007E+02  0.3003E+03
 -7.180  0.2972E+02  0.3009E+03
 -7.160  0.2939E+02  0.3015E+03
 -7.140  0.2909E+02  0.3021E+03
 -7.120  0.2888E+02  0.3027E+03
 -7.100  0.2878E+02  0.3032E+03
 -7.080  0.2879E+02  0.3038E+03
 -7.060  0.2890E+02  0.3044E+03
 -7.040  0.2908E+02  0.3050E+03
 -7.020  0.2927E+02  0.3056E+03
 -7.000  0.2945E+02  0.3062E+03
 -6.980  0.2956E+02  0.3067E+03
 -6.960  0.2959E+02  0.3073E+03
 -6.940  0.2952E+02  0.3079E+03
 -6.920  0.2937E+02  0.3085E+03
 -6.900  0.2916E+02  0.3091E+03
 -6.880  0.2891E+02  0.3097E+03
 -6.860  0.2866E+02  0.3103E+03
 -6.840  0.2841E+02  0.3108E+03
 -6.820  0.2818E+02  0.3114E+03
 -6.800  0.2800E+02  0.3119E+03
 -6.780  0.2785E+02  0.3125E+03
 -6.760  0.2776E+02  0.3131E+03
 -6.740  0.2774E+02  0.3136E+03
 -6.720  0.2778E+02  0.3142E+03
 -6.700  0.2788E+02  0.3147E+03
 -6.680  0.2804E+02  0.3153E+03
 -6.660  0.2822E+02  0.3158E+03
 -6.640  0.2839E+02  0.3164E+03
 -6.620  0.2851E+02  0.3170E+03
 -6.600  0.2854E+02  0.3176E+03
 -6.580  0.2845E+02  0.3181E+03
 -6.560  0.2825E+02  0.3187E+03
 -6.540  0.2795E+02  0.3192E+03
 -6.520  0.2760E+02  0.3198E+03
 -6.500  0.2726E+02  0.3203E+03
 -6.480  0.2697E+02  0.3209E+03
 -6.460  0.2679E+02  0.3214E+03
 -6.440  0.2674E+02  0.3220E+03
 -6.420  0.2681E+02  0.3225E+03
 -6.400  0.2699E+02  0.3230E+03
 -6.380  0.2722E+02  0.3236E+03
 -6.360  0.2745E+02  0.3241E+03
 -6.340  0.2762E+02  0.3247E+03
 -6.320  0.2771E+02  0.3252E+03
 -6.300  0.2770E+02  0.3258E+03
 -6.280  0.2760E+02  0.3263E+03
 -6.260  0.2742E+02  0.3269E+03
 -6.240  0.2722E+02  0.3274E+03
 -6.220  0.2703E+02  0.3280E+03
 -6.200  0.2686E+02  0.3285E+03
 -6.180  0.2674E+02  0.3290E+03
 -6.160  0.2667E+02  0.3296E+03
 -6.140  0.2662E+02  0.3301E+03
 -6.120  0.2660E+02  0.3306E+03
 -6.100  0.2658E+02  0.3312E+03
 -6.080  0.2657E+02  0.3317E+03
 -6.060  0.2655E+02  0.3322E+03
 -6.040  0.2656E+02  0.3328E+03
 -6.020  0.2658E+02  0.3333E+03
 -6.000  0.2664E+02  0.3338E+03
 -5.980  0.2673E+02  0.3344E+03
 -5.960  0.2682E+02  0.3349E+03
 -5.940  0.2692E+02  0.3354E+03
 -5.920  0.2698E+02  0.3360E+03
 -5.900  0.2699E+02  0.3365E+03
 -5.880  0.2694E+02  0.3371E+03
 -5.860  0.2683E+02  0.3376E+03
 -5.840  0.2669E+02  0.3381E+03
 -5.820  0.2651E+02  0.3387E+03
 -5.800  0.2634E+02  0.3392E+03
 -5.780  0.2620E+02  0.3397E+03
 -5.760  0.2609E+02  0.3402E+03
 -5.740  0.2604E+02  0.3408E+03
 -5.720  0.2604E+02  0.3413E+03
 -5.700  0.2610E+02  0.3418E+03
 -5.680  0.2621E+02  0.3423E+03
 -5.660  0.2636E+02  0.3428E+03
 -5.640  0.2652E+02  0.3434E+03
 -5.620  0.2668E+02  0.3439E+03
 -5.600  0.2681E+02  0.3444E+03
 -5.580  0.2686E+02  0.3450E+03
 -5.560  0.2680E+02  0.3455E+03
 -5.540  0.2660E+02  0.3461E+03
 -5.520  0.2625E+02  0.3466E+03
 -5.500  0.2574E+02  0.3471E+03
 -5.480  0.2507E+02  0.3476E+03
 -5.460  0.2429E+02  0.3481E+03
 -5.440  0.2344E+02  0.3485E+03
 -5.420  0.2257E+02  0.3490E+03
 -5.400  0.2173E+02  0.3494E+03
 -5.380  0.2097E+02  0.3499E+03
 -5.360  0.2033E+02  0.3503E+03
 -5.340  0.1982E+02  0.3507E+03
 -5.320  0.1943E+02  0.3510E+03
 -5.300  0.1915E+02  0.3514E+03
 -5.280  0.1895E+02  0.3518E+03
 -5.260  0.1880E+02  0.3522E+03
 -5.240  0.1868E+02  0.3526E+03
 -5.220  0.1857E+02  0.3529E+03
 -5.200  0.1847E+02  0.3533E+03
 -5.180  0.1839E+02  0.3537E+03
 -5.160  0.1832E+02  0.3540E+03
 -5.140  0.1828E+02  0.3544E+03
 -5.120  0.1826E+02  0.3548E+03
 -5.100  0.1826E+02  0.3551E+03
 -5.080  0.1830E+02  0.3555E+03
 -5.060  0.1838E+02  0.3559E+03
 -5.040  0.1852E+02  0.3562E+03
 -5.020  0.1875E+02  0.3566E+03
 -5.000  0.1907E+02  0.3570E+03
 -4.980  0.1950E+02  0.3574E+03
 -4.960  0.2004E+02  0.3578E+03
 -4.940  0.2067E+02  0.3582E+03
 -4.920  0.2137E+02  0.3586E+03
 -4.900  0.2210E+02  0.3591E+03
 -4.880  0.2282E+02  0.3595E+03
 -4.860  0.2351E+02  0.3600E+03
 -4.840  0.2414E+02  0.3605E+03
 -4.820  0.2469E+02  0.3610E+03
 -4.800  0.2516E+02  0.3615E+03
 -4.780  0.2553E+02  0.3620E+03
 -4.760  0.2579E+02  0.3625E+03
 -4.740  0.2593E+02  0.3630E+03
 -4.720  0.2594E+02  0.3635E+03
 -4.700  0.2582E+02  0.3640E+03
 -4.680  0.2560E+02  0.3646E+03
 -4.660  0.2529E+02  0.3651E+03
 -4.640  0.2493E+02  0.3656E+03
 -4.620  0.2452E+02  0.3661E+03
 -4.600  0.2409E+02  0.3665E+03
 -4.580  0.2362E+02  0.3670E+03
 -4.560  0.2309E+02  0.3675E+03
 -4.540  0.2248E+02  0.3679E+03
 -4.520  0.2177E+02  0.3684E+03
 -4.500  0.2095E+02  0.3688E+03
 -4.480  0.2003E+02  0.3692E+03
 -4.460  0.1905E+02  0.3696E+03
 -4.440  0.1806E+02  0.3699E+03
 -4.420  0.1711E+02  0.3703E+03
 -4.400  0.1626E+02  0.3706E+03
 -4.380  0.1556E+02  0.3709E+03
 -4.360  0.1502E+02  0.3712E+03
 -4.340  0.1465E+02  0.3715E+03
 -4.320  0.1444E+02  0.3718E+03
 -4.300  0.1435E+02  0.3721E+03
 -4.280  0.1434E+02  0.3724E+03
 -4.260  0.1436E+02  0.3726E+03
 -4.240  0.1436E+02  0.3729E+03
 -4.220  0.1429E+02  0.3732E+03
 -4.200  0.1414E+02  0.3735E+03
 -4.180  0.1388E+02  0.3738E+03
 -4.160  0.1352E+02  0.3740E+03
 -4.140  0.1307E+02  0.3743E+03
 -4.120  0.1257E+02  0.3746E+03
 -4.100  0.1205E+02  0.3748E+03
 -4.080  0.1156E+02  0.3750E+03
 -4.060  0.1113E+02  0.3753E+03
 -4.040  0.1077E+02  0.3755E+03
 -4.020  0.1050E+02  0.3757E+03
 -4.000  0.1032E+02  0.3759E+03
 -3.980  0.1021E+02  0.3761E+03
 -3.960  0.1017E+02  0.3763E+03
 -3.940  0.1016E+02  0.3765E+03
 -3.920  0.1017E+02  0.3767E+03
 -3.900  0.1017E+02  0.3769E+03
 -3.880  0.1014E+02  0.3771E+03
 -3.860  0.1006E+02  0.3773E+03
 -3.840  0.9923E+01  0.3775E+03
 -3.820  0.9720E+01  0.3777E+03
 -3.800  0.9458E+01  0.3779E+03
 -3.780  0.9150E+01  0.3781E+03
 -3.760  0.8815E+01  0.3782E+03
 -3.740  0.8478E+01  0.3784E+03
 -3.720  0.8164E+01  0.3786E+03
 -3.700  0.7891E+01  0.3787E+03
 -3.680  0.7672E+01  0.3789E+03
 -3.660  0.7510E+01  0.3790E+03
 -3.640  0.7403E+01  0.3792E+03
 -3.620  0.7339E+01  0.3793E+03
 -3.600  0.7305E+01  0.3795E+03
 -3.580  0.7286E+01  0.3796E+03
 -3.560  0.7267E+01  0.3798E+03
 -3.540  0.7235E+01  0.3799E+03
 -3.520  0.7179E+01  0.3801E+03
 -3.500  0.7091E+01  0.3802E+03
 -3.480  0.6965E+01  0.3803E+03
 -3.460  0.6800E+01  0.3805E+03
 -3.440  0.6600E+01  0.3806E+03
 -3.420  0.6371E+01  0.3807E+03
 -3.400  0.6125E+01  0.3809E+03
 -3.380  0.5878E+01  0.3810E+03
 -3.360  0.5646E+01  0.3811E+03
 -3.340  0.5443E+01  0.3812E+03
 -3.320  0.5282E+01  0.3813E+03
 -3.300  0.5167E+01  0.3814E+03
 -3.280  0.5096E+01  0.3815E+03
 -3.260  0.5059E+01  0.3816E+03
 -3.240  0.5042E+01  0.3817E+03
 -3.220  0.5026E+01  0.3818E+03
 -3.200  0.4993E+01  0.3819E+03
 -3.180  0.4929E+01  0.3820E+03
 -3.160  0.4829E+01  0.3821E+03
 -3.140  0.4693E+01  0.3822E+03
 -3.120  0.4530E+01  0.3823E+03
 -3.100  0.4352E+01  0.3824E+03
 -3.080  0.4172E+01  0.3825E+03
 -3.060  0.4001E+01  0.3825E+03
 -3.040  0.3846E+01  0.3826E+03
 -3.020  0.3709E+01  0.3827E+03
 -3.000  0.3587E+01  0.3828E+03
 -2.980  0.3473E+01  0.3828E+03
 -2.960  0.3365E+01  0.3829E+03
 -2.940  0.3258E+01  0.3830E+03
 -2.920  0.3153E+01  0.3830E+03
 -2.900  0.3054E+01  0.3831E+03
 -2.880  0.2963E+01  0.3831E+03
 -2.860  0.2883E+01  0.3832E+03
 -2.840  0.2815E+01  0.3833E+03
 -2.820  0.2754E+01  0.3833E+03
 -2.800  0.2692E+01  0.3834E+03
 -2.780  0.2618E+01  0.3834E+03
 -2.760  0.2523E+01  0.3835E+03
 -2.740  0.2400E+01  0.3835E+03
 -2.720  0.2249E+01  0.3836E+03
 -2.700  0.2076E+01  0.3836E+03
 -2.680  0.1894E+01  0.3836E+03
 -2.660  0.1717E+01  0.3837E+03
 -2.640  0.1560E+01  0.3837E+03
 -2.620  0.1434E+01  0.3837E+03
 -2.600  0.1343E+01  0.3838E+03
 -2.580  0.1284E+01  0.3838E+03
 -2.560  0.1247E+01  0.3838E+03
 -2.540  0.1218E+01  0.3838E+03
 -2.520  0.1183E+01  0.3839E+03
 -2.500  0.1131E+01  0.3839E+03
 -2.480  0.1055E+01  0.3839E+03
 -2.460  0.9540E+00  0.3839E+03
 -2.440  0.8342E+00  0.3839E+03
 -2.420  0.7047E+00  0.3840E+03
 -2.400  0.5769E+00  0.3840E+03
 -2.380  0.4620E+00  0.3840E+03
 -2.360  0.3696E+00  0.3840E+03
 -2.340  0.3070E+00  0.3840E+03
 -2.320  0.2785E+00  0.3840E+03
 -2.300  0.2863E+00  0.3840E+03
 -2.280  0.3297E+00  0.3840E+03
 -2.260  0.4058E+00  0.3840E+03
 -2.240  0.5091E+00  0.3840E+03
 -2.220  0.6314E+00  0.3840E+03
 -2.200  0.7625E+00  0.3841E+03
 -2.180  0.8911E+00  0.3841E+03
 -2.160  0.1007E+01  0.3841E+03
 -2.140  0.1102E+01  0.3841E+03
 -2.120  0.1173E+01  0.3841E+03
 -2.100  0.1224E+01  0.3842E+03
 -2.080  0.1264E+01  0.3842E+03
 -2.060  0.1305E+01  0.3842E+03
 -2.040  0.1362E+01  0.3842E+03
 -2.020  0.1445E+01  0.3843E+03
 -2.000  0.1561E+01  0.3843E+03
 -1.980  0.1710E+01  0.3843E+03
 -1.960  0.1884E+01  0.3844E+03
 -1.940  0.2070E+01  0.3844E+03
 -1.920  0.2254E+01  0.3845E+03
 -1.900  0.2424E+01  0.3845E+03
 -1.880  0.2571E+01  0.3846E+03
 -1.860  0.2693E+01  0.3846E+03
 -1.840  0.2795E+01  0.3847E+03
 -1.820  0.2884E+01  0.3847E+03
 -1.800  0.2967E+01  0.3848E+03
 -1.780  0.3054E+01  0.3849E+03
 -1.760  0.3148E+01  0.3849E+03
 -1.740  0.3250E+01  0.3850E+03
 -1.720  0.3359E+01  0.3850E+03
 -1.700  0.3472E+01  0.3851E+03
 -1.680  0.3590E+01  0.3852E+03
 -1.660  0.3716E+01  0.3853E+03
 -1.640  0.3855E+01  0.3853E+03
 -1.620  0.4014E+01  0.3854E+03
 -1.600  0.4197E+01  0.3855E+03
 -1.580  0.4404E+01  0.3856E+03
 -1.560  0.4628E+01  0.3857E+03
 -1.540  0.4857E+01  0.3858E+03
 -1.520  0.5075E+01  0.3859E+03
 -1.500  0.5266E+01  0.3860E+03
 -1.480  0.5420E+01  0.3861E+03
 -1.460  0.5533E+01  0.3862E+03
 -1.440  0.5611E+01  0.3863E+03
 -1.420  0.5669E+01  0.3864E+03
 -1.400  0.5725E+01  0.3865E+03
 -1.380  0.5800E+01  0.3867E+03
 -1.360  0.5912E+01  0.3868E+03
 -1.340  0.6071E+01  0.3869E+03
 -1.320  0.6283E+01  0.3870E+03
 -1.300  0.6546E+01  0.3872E+03
 -1.280  0.6854E+01  0.3873E+03
 -1.260  0.7196E+01  0.3874E+03
 -1.240  0.7557E+01  0.3876E+03
 -1.220  0.7919E+01  0.3878E+03
 -1.200  0.8265E+01  0.3879E+03
 -1.180  0.8577E+01  0.3881E+03
 -1.160  0.8842E+01  0.3883E+03
 -1.140  0.9054E+01  0.3884E+03
 -1.120  0.9217E+01  0.3886E+03
 -1.100  0.9346E+01  0.3888E+03
 -1.080  0.9463E+01  0.3890E+03
 -1.060  0.9601E+01  0.3892E+03
 -1.040  0.9792E+01  0.3894E+03
 -1.020  0.1007E+02  0.3896E+03
 -1.000  0.1045E+02  0.3898E+03
 -0.980  0.1096E+02  0.3900E+03
 -0.960  0.1160E+02  0.3903E+03
 -0.940  0.1234E+02  0.3905E+03
 -0.920  0.1318E+02  0.3908E+03
 -0.900  0.1407E+02  0.3910E+03
 -0.880  0.1500E+02  0.3913E+03
 -0.860  0.1595E+02  0.3917E+03
 -0.840  0.1691E+02  0.3920E+03
 -0.820  0.1790E+02  0.3924E+03
 -0.800  0.1894E+02  0.3927E+03
 -0.780  0.2006E+02  0.3931E+03
 -0.760  0.2128E+02  0.3936E+03
 -0.740  0.2259E+02  0.3940E+03
 -0.720  0.2397E+02  0.3945E+03
 -0.700  0.2536E+02  0.3950E+03
 -0.680  0.2668E+02  0.3955E+03
 -0.660  0.2785E+02  0.3961E+03
 -0.640  0.2877E+02  0.3967E+03
 -0.620  0.2937E+02  0.3973E+03
 -0.600  0.2964E+02  0.3979E+03
 -0.580  0.2955E+02  0.3984E+03
 -0.560  0.2915E+02  0.3990E+03
 -0.540  0.2850E+02  0.3996E+03
 -0.520  0.2767E+02  0.4002E+03
 -0.500  0.2672E+02  0.4007E+03
 -0.480  0.2572E+02  0.4012E+03
 -0.460  0.2472E+02  0.4017E+03
 -0.440  0.2374E+02  0.4022E+03
 -0.420  0.2280E+02  0.4026E+03
 -0.400  0.2191E+02  0.4031E+03
 -0.380  0.2108E+02  0.4035E+03
 -0.360  0.2032E+02  0.4039E+03
 -0.340  0.1964E+02  0.4043E+03
 -0.320  0.1907E+02  0.4047E+03
 -0.300  0.1862E+02  0.4050E+03
 -0.280  0.1830E+02  0.4054E+03
 -0.260  0.1812E+02  0.4058E+03
 -0.240  0.1804E+02  0.4061E+03
 -0.220  0.1804E+02  0.4065E+03
 -0.200  0.1806E+02  0.4068E+03
 -0.180  0.1806E+02  0.4072E+03
 -0.160  0.1799E+02  0.4076E+03
 -0.140  0.1782E+02  0.4079E+03
 -0.120  0.1754E+02  0.4083E+03
 -0.100  0.1718E+02  0.4086E+03
 -0.080  0.1674E+02  0.4090E+03
 -0.060  0.1629E+02  0.4093E+03
 -0.040  0.1585E+02  0.4096E+03
 -0.020  0.1547E+02  0.4099E+03
  0.000  0.1518E+02  0.4102E+03
  0.020  0.1498E+02  0.4105E+03
  0.040  0.1489E+02  0.4108E+03
  0.060  0.1487E+02  0.4111E+03
  0.080  0.1490E+02  0.4114E+03
  0.100  0.1495E+02  0.4117E+03
  0.120  0.1501E+02  0.4120E+03
  0.140  0.1504E+02  0.4123E+03
  0.160  0.1503E+02  0.4126E+03
  0.180  0.1499E+02  0.4129E+03
  0.200  0.1490E+02  0.4132E+03
  0.220  0.1478E+02  0.4135E+03
  0.240  0.1463E+02  0.4138E+03
  0.260  0.1444E+02  0.4141E+03
  0.280  0.1424E+02  0.4144E+03
  0.300  0.1402E+02  0.4146E+03
  0.320  0.1380E+02  0.4149E+03
  0.340  0.1359E+02  0.4152E+03
  0.360  0.1342E+02  0.4155E+03
  0.380  0.1328E+02  0.4157E+03
  0.400  0.1320E+02  0.4160E+03
  0.420  0.1317E+02  0.4163E+03
  0.440  0.1318E+02  0.4165E+03
  0.460  0.1322E+02  0.4168E+03
  0.480  0.1328E+02  0.4170E+03
  0.500  0.1333E+02  0.4173E+03
  0.520  0.1335E+02  0.4176E+03
  0.540  0.1333E+02  0.4178E+03
  0.560  0.1326E+02  0.4181E+03
  0.580  0.1314E+02  0.4184E+03
  0.600  0.1296E+02  0.4186E+03
  0.620  0.1276E+02  0.4189E+03
  0.640  0.1256E+02  0.4191E+03
  0.660  0.1238E+02  0.4194E+03
  0.680  0.1226E+02  0.4196E+03
  0.700  0.1222E+02  0.4199E+03
  0.720  0.1228E+02  0.4201E+03
  0.740  0.1245E+02  0.4204E+03
  0.760  0.1273E+02  0.4206E+03
  0.780  0.1311E+02  0.4209E+03
  0.800  0.1358E+02  0.4212E+03
  0.820  0.1412E+02  0.4214E+03
  0.840  0.1471E+02  0.4217E+03
  0.860  0.1534E+02  0.4220E+03
  0.880  0.1600E+02  0.4224E+03
  0.900  0.1666E+02  0.4227E+03
  0.920  0.1731E+02  0.4230E+03
  0.940  0.1793E+02  0.4234E+03
  0.960  0.1853E+02  0.4238E+03
  0.980  0.1909E+02  0.4242E+03
  1.000  0.1962E+02  0.4245E+03
  1.020  0.2013E+02  0.4249E+03
  1.040  0.2061E+02  0.4254E+03
  1.060  0.2107E+02  0.4258E+03
  1.080  0.2149E+02  0.4262E+03
  1.100  0.2187E+02  0.4267E+03
  1.120  0.2219E+02  0.4271E+03
  1.140  0.2242E+02  0.4275E+03
  1.160  0.2256E+02  0.4280E+03
  1.180  0.2261E+02  0.4284E+03
  1.200  0.2256E+02  0.4289E+03
  1.220  0.2245E+02  0.4293E+03
  1.240  0.2228E+02  0.4298E+03
  1.260  0.2209E+02  0.4302E+03
  1.280  0.2190E+02  0.4307E+03
  1.300  0.2172E+02  0.4311E+03
  1.320  0.2156E+02  0.4315E+03
  1.340  0.2143E+02  0.4320E+03
  1.360  0.2132E+02  0.4324E+03
  1.380  0.2124E+02  0.4328E+03
  1.400  0.2119E+02  0.4332E+03
  1.420  0.2118E+02  0.4337E+03
  1.440  0.2123E+02  0.4341E+03
  1.460  0.2134E+02  0.4345E+03
  1.480  0.2154E+02  0.4349E+03
  1.500  0.2183E+02  0.4354E+03
  1.520  0.2225E+02  0.4358E+03
  1.540  0.2278E+02  0.4363E+03
  1.560  0.2343E+02  0.4368E+03
  1.580  0.2418E+02  0.4372E+03
  1.600  0.2502E+02  0.4377E+03
  1.620  0.2590E+02  0.4383E+03
  1.640  0.2678E+02  0.4388E+03
  1.660  0.2762E+02  0.4393E+03
  1.680  0.2838E+02  0.4399E+03
  1.700  0.2901E+02  0.4405E+03
  1.720  0.2950E+02  0.4411E+03
  1.740  0.2984E+02  0.4417E+03
  1.760  0.3005E+02  0.4423E+03
  1.780  0.3014E+02  0.4429E+03
  1.800  0.3017E+02  0.4435E+03
  1.820  0.3017E+02  0.4441E+03
  1.840  0.3019E+02  0.4447E+03
  1.860  0.3026E+02  0.4453E+03
  1.880  0.3041E+02  0.4459E+03
  1.900  0.3064E+02  0.4465E+03
  1.920  0.3093E+02  0.4471E+03
  1.940  0.3126E+02  0.4478E+03
  1.960  0.3158E+02  0.4484E+03
  1.980  0.3185E+02  0.4490E+03
  2.000  0.3205E+02  0.4497E+03
  2.020  0.3213E+02  0.4503E+03
  2.040  0.3208E+02  0.4510E+03
  2.060  0.3189E+02  0.4516E+03
  2.080  0.3156E+02  0.4522E+03
  2.100  0.3111E+02  0.4528E+03
  2.120  0.3054E+02  0.4535E+03
  2.140  0.2986E+02  0.4541E+03
  2.160  0.2907E+02  0.4546E+03
  2.180  0.2816E+02  0.4552E+03
  2.200  0.2713E+02  0.4557E+03
  2.220  0.2597E+02  0.4563E+03
  2.240  0.2465E+02  0.4568E+03
  2.260  0.2318E+02  0.4572E+03
  2.280  0.2155E+02  0.4576E+03
  2.300  0.1977E+02  0.4580E+03
  2.320  0.1785E+02  0.4584E+03
  2.340  0.1582E+02  0.4587E+03
  2.360  0.1375E+02  0.4590E+03
  2.380  0.1168E+02  0.4592E+03
  2.400  0.9675E+01  0.4594E+03
  2.420  0.7806E+01  0.4596E+03
  2.440  0.6122E+01  0.4597E+03
  2.460  0.4658E+01  0.4598E+03
  2.480  0.3434E+01  0.4599E+03
  2.500  0.2450E+01  0.4599E+03
  2.520  0.1690E+01  0.4599E+03
  2.540  0.1126E+01  0.4600E+03
  2.560  0.7235E+00  0.4600E+03
  2.580  0.4484E+00  0.4600E+03
  2.600  0.2678E+00  0.4600E+03
  2.620  0.1541E+00  0.4600E+03
  2.640  0.8533E-01  0.4600E+03
  2.660  0.4549E-01  0.4600E+03
  2.680  0.2332E-01  0.4600E+03
  2.700  0.1150E-01  0.4600E+03
  2.720  0.5454E-02  0.4600E+03
  2.740  0.2486E-02  0.4600E+03
  2.760  0.1089E-02  0.4600E+03
  2.780  0.4582E-03  0.4600E+03
  2.800  0.1852E-03  0.4600E+03
  2.820  0.7192E-04  0.4600E+03
  2.840  0.2682E-04  0.4600E+03
  2.860  0.9600E-05  0.4600E+03
  2.880  0.3299E-05  0.4600E+03
  2.900  0.1088E-05  0.4600E+03
  2.920  0.3445E-06  0.4600E+03
  2.940  0.1047E-06  0.4600E+03
  2.960  0.3051E-07  0.4600E+03
  2.980  0.8533E-08  0.4600E+03
  3.000  0.2289E-08  0.4600E+03
  3.020  0.5890E-09  0.4600E+03
  3.040  0.1454E-09  0.4600E+03
  3.060  0.3441E-10  0.4600E+03
  3.080  0.7809E-11  0.4600E+03
  3.100  0.1700E-11  0.4600E+03
  3.120  0.3546E-12  0.4600E+03
  3.140  0.7094E-13  0.4600E+03
  3.160  0.1360E-13  0.4600E+03
  3.180  0.2501E-14  0.4600E+03
  3.200  0.4407E-15  0.4600E+03
  3.220  0.7443E-16  0.4600E+03
  3.240  0.1205E-16  0.4600E+03
  3.260  0.1869E-17  0.4600E+03
  3.280  0.2779E-18  0.4600E+03
  3.300  0.3960E-19  0.4600E+03
  3.320  0.5406E-20  0.4600E+03
  3.340  0.7073E-21  0.4600E+03
  3.360  0.8867E-22  0.4600E+03
  3.380  0.1065E-22  0.4600E+03
  3.400  0.1226E-23  0.4600E+03
  3.420  0.1352E-24  0.4600E+03
  3.440  0.1428E-25  0.4600E+03
  3.460  0.1446E-26  0.4600E+03
  3.480  0.1402E-27  0.4600E+03
  3.500  0.1302E-28  0.4600E+03
  3.520  0.1159E-29  0.4600E+03
  3.540  0.9883E-31  0.4600E+03
  3.560  0.8072E-32  0.4600E+03
  3.580  0.6316E-33  0.4600E+03
  3.600  0.4734E-34  0.4600E+03
  3.620  0.3399E-35  0.4600E+03
  3.640  0.2338E-36  0.4600E+03
  3.660  0.1541E-37  0.4600E+03
  3.680  0.9723E-39  0.4600E+03
  3.700  0.5878E-40  0.4600E+03
  3.720  0.3404E-41  0.4600E+03
  3.740  0.1888E-42  0.4600E+03
  3.760  0.1003E-43  0.4600E+03
  3.780  0.5105E-45  0.4600E+03
  3.800  0.2489E-46  0.4600E+03
  3.820  0.1162E-47  0.4600E+03
  3.840  0.5197E-49  0.4600E+03
  3.860  0.2226E-50  0.4600E+03
  3.880  0.9134E-52  0.4600E+03
  3.900  0.3590E-53  0.4600E+03
  3.920  0.1351E-54  0.4600E+03
  3.940  0.4872E-56  0.4600E+03
  3.960  0.1682E-57  0.4600E+03
  3.980  0.5564E-59  0.4600E+03
  4.000  0.1763E-60  0.4600E+03
  4.020  0.5348E-62  0.4600E+03
  4.040  0.1554E-63  0.4600E+03
  4.060  0.4327E-65  0.4600E+03
  4.080  0.1153E-66  0.4600E+03
  4.100  0.2945E-68  0.4600E+03
  4.120  0.7203E-70  0.4600E+03
  4.140  0.1687E-71  0.4600E+03
  4.160  0.3785E-73  0.4600E+03
  4.180  0.8133E-75  0.4600E+03
  4.200  0.1674E-76  0.4600E+03
  4.220  0.3299E-78  0.4600E+03
  4.240  0.6231E-80  0.4600E+03
  4.260  0.1152E-81  0.4600E+03
  4.280  0.4586E-83  0.4600E+03
  4.300  0.2671E-83  0.4600E+03
  4.320  0.2640E-83  0.4600E+03
  4.340  0.2640E-83  0.4600E+03
  4.360  0.2640E-83  0.4600E+03
  4.380  0.2640E-83  0.4600E+03
  4.400  0.2640E-83  0.4600E+03
  4.420  0.2640E-83  0.4600E+03
  4.440  0.2640E-83  0.4600E+03
  4.460  0.2640E-83  0.4600E+03
  4.480  0.2640E-83  0.4600E+03
  4.500  0.2640E-83  0.4600E+03
  4.520  0.2640E-83  0.4600E+03
  4.540  0.2640E-83  0.4600E+03
  4.560  0.2640E-83  0.4600E+03
  4.580  0.2640E-83  0.4600E+03
  4.600  0.2640E-83  0.4600E+03
  4.620  0.2640E-83  0.4600E+03
  4.640  0.2640E-83  0.4600E+03
  4.660  0.2640E-83  0.4600E+03
  4.680  0.2640E-83  0.4600E+03
  4.700  0.2640E-83  0.4600E+03
  4.720  0.2640E-83  0.4600E+03
  4.740  0.2640E-83  0.4600E+03
  4.760  0.2640E-83  0.4600E+03
  4.780  0.2640E-83  0.4600E+03
  4.800  0.2640E-83  0.4600E+03
  4.820  0.2640E-83  0.4600E+03
  4.840  0.2640E-83  0.4600E+03
  4.860  0.2640E-83  0.4600E+03
  4.880  0.2640E-83  0.4600E+03
  4.900  0.2640E-83  0.4600E+03
  4.920  0.2640E-83  0.4600E+03
  4.940  0.2640E-83  0.4600E+03
  4.960  0.2640E-83  0.4600E+03
  4.980  0.2640E-83  0.4600E+03
  5.000  0.2640E-83  0.4600E+03
  5.020  0.2640E-83  0.4600E+03
  5.040  0.2640E-83  0.4600E+03
  5.060  0.2640E-83  0.4600E+03
  5.080  0.2640E-83  0.4600E+03
  5.100  0.2640E-83  0.4600E+03
  5.120  0.2640E-83  0.4600E+03
  5.140  0.2640E-83  0.4600E+03
  5.160  0.2640E-83  0.4600E+03
  5.180  0.2640E-83  0.4600E+03
  5.200  0.2640E-83  0.4600E+03
  5.220  0.2640E-83  0.4600E+03
  5.240  0.2640E-83  0.4600E+03
  5.260  0.2640E-83  0.4600E+03
  5.280  0.2640E-83  0.4600E+03
  5.300  0.2640E-83  0.4600E+03
  5.320  0.2640E-83  0.4600E+03
  5.340  0.2640E-83  0.4600E+03
  5.360  0.2640E-83  0.4600E+03
  5.380  0.2640E-83  0.4600E+03
  5.400  0.2640E-83  0.4600E+03
  5.420  0.2640E-83  0.4600E+03
  5.440  0.2640E-83  0.4600E+03
  5.460  0.2640E-83  0.4600E+03
  5.480  0.2640E-83  0.4600E+03
  5.500  0.2640E-83  0.4600E+03
  5.520  0.2640E-83  0.4600E+03
  5.540  0.2640E-83  0.4600E+03
  5.560  0.2640E-83  0.4600E+03
  5.580  0.2640E-83  0.4600E+03
  5.600  0.2640E-83  0.4600E+03
  5.620  0.2640E-83  0.4600E+03
  5.640  0.2640E-83  0.4600E+03
  5.660  0.2640E-83  0.4600E+03
  5.680  0.2640E-83  0.4600E+03
  5.700  0.2640E-83  0.4600E+03
  5.720  0.2640E-83  0.4600E+03
  5.740  0.2640E-83  0.4600E+03
  5.760  0.2640E-83  0.4600E+03
  5.780  0.2640E-83  0.4600E+03
  5.800  0.2640E-83  0.4600E+03
  5.820  0.2640E-83  0.4600E+03
  5.840  0.2640E-83  0.4600E+03
  5.860  0.2640E-83  0.4600E+03
  5.880  0.2640E-83  0.4600E+03
  5.900  0.2640E-83  0.4600E+03
  5.920  0.2640E-83  0.4600E+03
  5.940  0.2640E-83  0.4600E+03
  5.960  0.2640E-83  0.4600E+03
  5.980  0.2640E-83  0.4600E+03
  6.000  0.2640E-83  0.4600E+03
  6.020  0.2640E-83  0.4600E+03
  6.040  0.2640E-83  0.4600E+03
  6.060  0.2640E-83  0.4600E+03
  6.080  0.2640E-83  0.4600E+03
  6.100  0.2640E-83  0.4600E+03
  6.120  0.2640E-83  0.4600E+03
  6.140  0.2640E-83  0.4600E+03
  6.160  0.2640E-83  0.4600E+03
  6.180  0.2640E-83  0.4600E+03
  6.200  0.2640E-83  0.4600E+03
  6.220  0.2640E-83  0.4600E+03
  6.240  0.2640E-83  0.4600E+03
  6.260  0.2640E-83  0.4600E+03
  6.280  0.2640E-83  0.4600E+03
  6.300  0.2640E-83  0.4600E+03
  6.320  0.2640E-83  0.4600E+03
  6.340  0.2640E-83  0.4600E+03
  6.360  0.2640E-83  0.4600E+03
  6.380  0.2640E-83  0.4600E+03
  6.400  0.2640E-83  0.4600E+03
  6.420  0.2640E-83  0.4600E+03
  6.440  0.2640E-83  0.4600E+03
  6.460  0.2640E-83  0.4600E+03
  6.480  0.2640E-83  0.4600E+03
  6.500  0.2640E-83  0.4600E+03
  6.520  0.2640E-83  0.4600E+03
  6.540  0.2640E-83  0.4600E+03
  6.560  0.2640E-83  0.4600E+03
  6.580  0.2640E-83  0.4600E+03
  6.600  0.2640E-83  0.4600E+03
  6.620  0.2640E-83  0.4600E+03
  6.640  0.2640E-83  0.4600E+03
  6.660  0.2640E-83  0.4600E+03
  6.680  0.2640E-83  0.4600E+03
  6.700  0.2640E-83  0.4600E+03
  6.720  0.2640E-83  0.4600E+03
  6.740  0.2640E-83  0.4600E+03
  6.760  0.2640E-83  0.4600E+03
  6.780  0.2640E-83  0.4600E+03
  6.800  0.2640E-83  0.4600E+03
  6.820  0.2640E-83  0.4600E+03
  6.840  0.2640E-83  0.4600E+03
  6.860  0.2640E-83  0.4600E+03
  6.880  0.2640E-83  0.4600E+03
  6.900  0.2640E-83  0.4600E+03
  6.920  0.2640E-83  0.4600E+03
  6.940  0.2640E-83  0.4600E+03
  6.960  0.2640E-83  0.4600E+03
  6.980  0.2640E-83  0.4600E+03
  7.000  0.2640E-83  0.4600E+03
  7.020  0.2640E-83  0.4600E+03
  7.040  0.2640E-83  0.4600E+03
  7.060  0.2640E-83  0.4600E+03
  7.080  0.2640E-83  0.4600E+03
  7.100  0.2640E-83  0.4600E+03
  7.120  0.2640E-83  0.4600E+03
  7.140  0.2640E-83  0.4600E+03
  7.160  0.2640E-83  0.4600E+03
  7.180  0.2640E-83  0.4600E+03
  7.200  0.2640E-83  0.4600E+03
  7.220  0.2640E-83  0.4600E+03
  7.240  0.2640E-83  0.4600E+03
  7.260  0.2640E-83  0.4600E+03
  7.280  0.2640E-83  0.4600E+03
  7.300  0.2640E-83  0.4600E+03
  7.320  0.2640E-83  0.4600E+03
  7.340  0.2640E-83  0.4600E+03
  7.360  0.2640E-83  0.4600E+03
  7.380  0.2640E-83  0.4600E+03
  7.400  0.2640E-83  0.4600E+03
  7.420  0.2640E-83  0.4600E+03
  7.440  0.2640E-83  0.4600E+03
  7.460  0.2640E-83  0.4600E+03
  7.480  0.2640E-83  0.4600E+03
  7.500  0.2640E-83  0.4600E+03
  7.520  0.2640E-83  0.4600E+03
  7.540  0.2640E-83  0.4600E+03
  7.560  0.2640E-83  0.4600E+03
  7.580  0.2640E-83  0.4600E+03
  7.600  0.2640E-83  0.4600E+03
  7.620  0.2640E-83  0.4600E+03
  7.640  0.2640E-83  0.4600E+03
  7.660  0.2640E-83  0.4600E+03
  7.680  0.2640E-83  0.4600E+03
  7.700  0.2640E-83  0.4600E+03
  7.720  0.2640E-83  0.4600E+03
  7.740  0.2640E-83  0.4600E+03
  7.760  0.2640E-83  0.4600E+03
  7.780  0.2640E-83  0.4600E+03
  7.800  0.2640E-83  0.4600E+03
  7.820  0.2640E-83  0.4600E+03
  7.840  0.2640E-83  0.4600E+03
  7.860  0.2640E-83  0.4600E+03
  7.880  0.2640E-83  0.4600E+03
  7.900  0.2640E-83  0.4600E+03
  7.920  0.2640E-83  0.4600E+03
  7.940  0.2640E-83  0.4600E+03
  7.960  0.2640E-83  0.4600E+03
  7.980  0.2640E-83  0.4600E+03
  8.000  0.2640E-83  0.4600E+03
  8.020  0.2640E-83  0.4600E+03
  8.040  0.2640E-83  0.4600E+03
  8.060  0.2640E-83  0.4600E+03
  8.080  0.2640E-83  0.4600E+03
  8.100  0.2640E-83  0.4600E+03
  8.120  0.2640E-83  0.4600E+03
  8.140  0.2640E-83  0.4600E+03
  8.160  0.2640E-83  0.4600E+03
  8.180  0.2640E-83  0.4600E+03
  8.200  0.2640E-83  0.4600E+03
  8.220  0.2640E-83  0.4600E+03
  8.240  0.2640E-83  0.4600E+03
  8.260  0.2640E-83  0.4600E+03
  8.280  0.2640E-83  0.4600E+03
  8.300  0.2640E-83  0.4600E+03
  8.320  0.2640E-83  0.4600E+03
  8.340  0.2640E-83  0.4600E+03
  8.360  0.2640E-83  0.4600E+03
  8.380  0.2640E-83  0.4600E+03
  8.400  0.2640E-83  0.4600E+03
  8.420  0.2640E-83  0.4600E+03
  8.440  0.2640E-83  0.4600E+03
  8.460  0.2640E-83  0.4600E+03
  8.480  0.2640E-83  0.4600E+03
  8.500  0.2640E-83  0.4600E+03
  8.520  0.2640E-83  0.4600E+03
  8.540  0.2640E-83  0.4600E+03
  8.560  0.2640E-83  0.4600E+03
  8.580  0.2640E-83  0.4600E+03
  8.600  0.2640E-83  0.4600E+03
  8.620  0.2640E-83  0.4600E+03
  8.640  0.2640E-83  0.4600E+03
  8.660  0.2640E-83  0.4600E+03
  8.680  0.2640E-83  0.4600E+03
  8.700  0.2640E-83  0.4600E+03
  8.720  0.2640E-83  0.4600E+03
  8.740  0.2640E-83  0.4600E+03
  8.760  0.2640E-83  0.4600E+03
  8.780  0.2640E-83  0.4600E+03
  8.800  0.2640E-83  0.4600E+03
  8.820  0.2640E-83  0.4600E+03
  8.840  0.2640E-83  0.4600E+03
  8.860  0.2640E-83  0.4600E+03
  8.880  0.2640E-83  0.4600E+03
  8.900  0.2640E-83  0.4600E+03
  8.920  0.2640E-83  0.4600E+03
  8.940  0.2640E-83  0.4600E+03
  8.960  0.2640E-83  0.4600E+03
  8.980  0.2640E-83  0.4600E+03
  9.000  0.2640E-83  0.4600E+03
  9.020  0.2640E-83  0.4600E+03
  9.040  0.2640E-83  0.4600E+03
  9.060  0.2640E-83  0.4600E+03
  9.080  0.2640E-83  0.4600E+03
  9.100  0.2640E-83  0.4600E+03
  9.120  0.2640E-83  0.4600E+03
  9.140  0.2640E-83  0.4600E+03
  9.160  0.2640E-83  0.4600E+03
  9.180  0.2640E-83  0.4600E+03
  9.200  0.2640E-83  0.4600E+03
  9.220  0.2640E-83  0.4600E+03
  9.240  0.2640E-83  0.4600E+03
  9.260  0.2640E-83  0.4600E+03
  9.280  0.2640E-83  0.4600E+03
  9.300  0.2640E-83  0.4600E+03
  9.320  0.2640E-83  0.4600E+03
  9.340  0.2640E-83  0.4600E+03
  9.360  0.2640E-83  0.4600E+03
  9.380  0.2640E-83  0.4600E+03
  9.400  0.2640E-83  0.4600E+03
  9.420  0.2640E-83  0.4600E+03
  9.440  0.2640E-83  0.4600E+03
  9.460  0.2640E-83  0.4600E+03
  9.480  0.2640E-83  0.4600E+03
  9.500  0.2640E-83  0.4600E+03
  9.520  0.2640E-83  0.4600E+03
  9.540  0.2640E-83  0.4600E+03
  9.560  0.2640E-83  0.4600E+03
  9.580  0.2640E-83  0.4600E+03
  9.600  0.2640E-83  0.4600E+03
  9.620  0.2640E-83  0.4600E+03
  9.640  0.2640E-83  0.4600E+03
  9.660  0.2640E-83  0.4600E+03
  9.680  0.2640E-83  0.4600E+03
  9.700  0.2640E-83  0.4600E+03
  9.720  0.2640E-83  0.4600E+03
  9.740  0.2640E-83  0.4600E+03
  9.760  0.2640E-83  0.4600E+03
  9.780  0.2640E-83  0.4600E+03
  9.800  0.2640E-83  0.4600E+03
  9.820  0.2640E-83  0.4600E+03
  9.840  0.2640E-83  0.4600E+03
  9.860  0.2640E-83  0.4600E+03
  9.880  0.2640E-83  0.4600E+03
  9.900  0.2640E-83  0.4600E+03
  9.920  0.2640E-83  0.4600E+03
  9.940  0.2640E-83  0.4600E+03
  9.960  0.2640E-83  0.4600E+03
  9.980  0.2640E-83  0.4600E+03
 10.000  0.2640E-83  0.4600E+03
 10.020  0.2640E-83  0.4600E+03
 10.040  0.2640E-83  0.4600E+03
 10.060  0.2640E-83  0.4600E+03
 10.080  0.2640E-83  0.4600E+03
 10.100  0.2640E-83  0.4600E+03
 10.120  0.2640E-83  0.4600E+03
 10.140  0.2640E-83  0.4600E+03
 10.160  0.2640E-83  0.4600E+03
 10.180  0.2640E-83  0.4600E+03
 10.200  0.2640E-83  0.4600E+03
 10.220  0.2640E-83  0.4600E+03
 10.240  0.2640E-83  0.4600E+03
 10.260  0.2640E-83  0.4600E+03
 10.280  0.2640E-83  0.4600E+03
 10.300  0.2640E-83  0.4600E+03
 10.320  0.2640E-83  0.4600E+03
 10.340  0.2640E-83  0.4600E+03
 10.360  0.2640E-83  0.4600E+03
 10.380  0.2640E-83  0.4600E+03
 10.400  0.2640E-83  0.4600E+03
 10.420  0.2640E-83  0.4600E+03
 10.440  0.2640E-83  0.4600E+03
 10.460  0.2640E-83  0.4600E+03
 10.480  0.2640E-83  0.4600E+03
 10.500  0.2640E-83  0.4600E+03
 10.520  0.2640E-83  0.4600E+03
 10.540  0.2640E-83  0.4600E+03
 10.560  0.2640E-83  0.4600E+03
 10.580  0.2640E-83  0.4600E+03
 10.600  0.2640E-83  0.4600E+03
 10.620  0.2640E-83  0.4600E+03
 10.640  0.2640E-83  0.4600E+03
 10.660  0.2640E-83  0.4600E+03
 10.680  0.2640E-83  0.4600E+03
 10.700  0.2640E-83  0.4600E+03
 10.720  0.2640E-83  0.4600E+03
 10.740  0.2640E-83  0.4600E+03
 10.760  0.2640E-83  0.4600E+03
 10.780  0.2640E-83  0.4600E+03
 10.800  0.2640E-83  0.4600E+03
 10.820  0.2640E-83  0.4600E+03
 10.840  0.2640E-83  0.4600E+03
 10.860  0.2640E-83  0.4600E+03
 10.880  0.2640E-83  0.4600E+03
 10.900  0.2640E-83  0.4600E+03
 10.920  0.2640E-83  0.4600E+03
 10.940  0.2640E-83  0.4600E+03
 10.960  0.2640E-83  0.4600E+03
 10.980  0.2640E-83  0.4600E+03
 11.000  0.2640E-83  0.4600E+03
 11.020  0.2640E-83  0.4600E+03
 11.040  0.2640E-83  0.4600E+03
 11.060  0.2640E-83  0.4600E+03
 11.080  0.2640E-83  0.4600E+03
 11.100  0.2640E-83  0.4600E+03
 11.120  0.2640E-83  0.4600E+03
 11.140  0.2640E-83  0.4600E+03
 11.160  0.2640E-83  0.4600E+03
 11.180  0.2640E-83  0.4600E+03
 11.200  0.2640E-83  0.4600E+03
 11.220  0.2640E-83  0.4600E+03
 11.240  0.2640E-83  0.4600E+03
 11.260  0.2640E-83  0.4600E+03
 11.280  0.2640E-83  0.4600E+03
 11.300  0.2640E-83  0.4600E+03
 11.320  0.2640E-83  0.4600E+03
 11.340  0.2640E-83  0.4600E+03
 11.360  0.2640E-83  0.4600E+03
 11.380  0.2640E-83  0.4600E+03
 11.400  0.2640E-83  0.4600E+03
 11.420  0.2640E-83  0.4600E+03
 11.440  0.2640E-83  0.4600E+03
 11.460  0.2640E-83  0.4600E+03
 11.480  0.2640E-83  0.4600E+03
 11.500  0.2640E-83  0.4600E+03
 11.520  0.2640E-83  0.4600E+03
 11.540  0.2640E-83  0.4600E+03
 11.560  0.2640E-83  0.4600E+03
 11.580  0.2640E-83  0.4600E+03
 11.600  0.2640E-83  0.4600E+03
 11.620  0.2640E-83  0.4600E+03
 11.640  0.2640E-83  0.4600E+03
 11.660  0.2640E-83  0.4600E+03
 11.680  0.2640E-83  0.4600E+03
 11.700  0.2640E-83  0.4600E+03
 11.720  0.2640E-83  0.4600E+03
 11.740  0.2640E-83  0.4600E+03
 11.760  0.2640E-83  0.4600E+03
 11.780  0.2640E-83  0.4600E+03
 11.800  0.2640E-83  0.4600E+03
 11.820  0.2640E-83  0.4600E+03
 11.840  0.2640E-83  0.4600E+03
 11.860  0.2640E-83  0.4600E+03
 11.880  0.2640E-83  0.4600E+03
 11.900  0.2640E-83  0.4600E+03
 11.920  0.2640E-83  0.4600E+03
 11.940  0.2640E-83  0.4600E+03
 11.960  0.2640E-83  0.4600E+03
 11.980  0.2640E-83  0.4600E+03
 12.000  0.2640E-83  0.4600E+03
 12.020  0.2640E-83  0.4600E+03
 12.040  0.2640E-83  0.4600E+03
 12.060  0.2640E-83  0.4600E+03
 12.080  0.2640E-83  0.4600E+03
 12.100  0.2640E-83  0.4600E+03
 12.120  0.2640E-83  0.4600E+03
 12.140  0.2640E-83  0.4600E+03
 12.160  0.2640E-83  0.4600E+03
 12.180  0.2640E-83  0.4600E+03
 12.200  0.2640E-83  0.4600E+03
 12.220  0.2640E-83  0.4600E+03
 12.240  0.2640E-83  0.4600E+03
 12.260  0.2640E-83  0.4600E+03
 12.280  0.2640E-83  0.4600E+03
 12.300  0.2640E-83  0.4600E+03
 12.320  0.2640E-83  0.4600E+03
 12.340  0.2640E-83  0.4600E+03
 12.360  0.2640E-83  0.4600E+03
 12.380  0.2640E-83  0.4600E+03
 12.400  0.2640E-83  0.4600E+03
 12.420  0.2640E-83  0.4600E+03
 12.440  0.2640E-83  0.4600E+03
 12.460  0.2640E-83  0.4600E+03
 12.480  0.2640E-83  0.4600E+03
 12.500  0.2640E-83  0.4600E+03
 12.520  0.2640E-83  0.4600E+03
 12.540  0.2640E-83  0.4600E+03
 12.560  0.2640E-83  0.4600E+03
 12.580  0.2640E-83  0.4600E+03
 12.600  0.2640E-83  0.4600E+03
 12.620  0.2640E-83  0.4600E+03
 12.640  0.2640E-83  0.4600E+03
 12.660  0.2640E-83  0.4600E+03
 12.680  0.2640E-83  0.4600E+03
 12.700  0.2640E-83  0.4600E+03
 12.720  0.2640E-83  0.4600E+03
 12.740  0.2640E-83  0.4600E+03
 12.760  0.2640E-83  0.4600E+03
 12.780  0.2640E-83  0.4600E+03
 12.800  0.2640E-83  0.4600E+03
 12.820  0.2640E-83  0.4600E+03
 12.840  0.2640E-83  0.4600E+03
 12.860  0.2640E-83  0.4600E+03
 12.880  0.2640E-83  0.4600E+03
 12.900  0.2640E-83  0.4600E+03
 12.920  0.2640E-83  0.4600E+03
 12.940  0.2640E-83  0.4600E+03
 12.960  0.2640E-83  0.4600E+03
 12.980  0.2640E-83  0.4600E+03
 13.000  0.2640E-83  0.4600E+03
 13.020  0.2640E-83  0.4600E+03
 13.040  0.2640E-83  0.4600E+03
 13.060  0.2640E-83  0.4600E+03
 13.080  0.2640E-83  0.4600E+03
 13.100  0.2640E-83  0.4600E+03
 13.120  0.2640E-83  0.4600E+03
 13.140  0.2640E-83  0.4600E+03
 13.160  0.2640E-83  0.4600E+03
 13.180  0.2640E-83  0.4600E+03
 13.200  0.2640E-83  0.4600E+03
 13.220  0.2640E-83  0.4600E+03
 13.240  0.2640E-83  0.4600E+03
 13.260  0.2640E-83  0.4600E+03
 13.280  0.2640E-83  0.4600E+03
 13.300  0.2640E-83  0.4600E+03
 13.320  0.2640E-83  0.4600E+03
 13.340  0.2640E-83  0.4600E+03
 13.360  0.2640E-83  0.4600E+03
 13.380  0.2640E-83  0.4600E+03
 13.400  0.2640E-83  0.4600E+03
 13.420  0.2640E-83  0.4600E+03
 13.440  0.2640E-83  0.4600E+03
 13.460  0.2640E-83  0.4600E+03
 13.480  0.2640E-83  0.4600E+03
 13.500  0.2640E-83  0.4600E+03
 13.520  0.2640E-83  0.4600E+03
 13.540  0.2640E-83  0.4600E+03
 13.560  0.2640E-83  0.4600E+03
 13.580  0.2640E-83  0.4600E+03
 13.600  0.2640E-83  0.4600E+03
 13.620  0.2640E-83  0.4600E+03
 13.640  0.2640E-83  0.4600E+03
 13.660  0.2640E-83  0.4600E+03
 13.680  0.2640E-83  0.4600E+03
 13.700  0.2640E-83  0.4600E+03
 13.720  0.2640E-83  0.4600E+03
 13.740  0.2640E-83  0.4600E+03
 13.760  0.2640E-83  0.4600E+03
 13.780  0.2640E-83  0.4600E+03
 13.800  0.2640E-83  0.4600E+03
 13.820  0.2640E-83  0.4600E+03
 13.840  0.2640E-83  0.4600E+03
 13.860  0.2640E-83  0.4600E+03
 13.880  0.2640E-83  0.4600E+03
 13.900  0.2640E-83  0.4600E+03
 13.920  0.2640E-83  0.4600E+03
 13.940  0.2640E-83  0.4600E+03
 13.960  0.2640E-83  0.4600E+03
 13.980  0.2640E-83  0.4600E+03
 14.000  0.2640E-83  0.4600E+03
 14.020  0.2640E-83  0.4600E+03
 14.040  0.2640E-83  0.4600E+03
 14.060  0.2640E-83  0.4600E+03
 14.080  0.2640E-83  0.4600E+03
 14.100  0.2640E-83  0.4600E+03
 14.120  0.2640E-83  0.4600E+03
 14.140  0.2640E-83  0.4600E+03
 14.160  0.2640E-83  0.4600E+03
 14.180  0.2640E-83  0.4600E+03
 14.200  0.2640E-83  0.4600E+03
 14.220  0.2640E-83  0.4600E+03
 14.240  0.2640E-83  0.4600E+03
 14.260  0.2640E-83  0.4600E+03
 14.280  0.2640E-83  0.4600E+03
 14.300  0.2640E-83  0.4600E+03
 14.320  0.2640E-83  0.4600E+03
 14.340  0.2640E-83  0.4600E+03
 14.360  0.2640E-83  0.4600E+03
 14.380  0.2640E-83  0.4600E+03
 14.400  0.2640E-83  0.4600E+03
 14.420  0.2640E-83  0.4600E+03
 14.440  0.2640E-83  0.4600E+03
 14.460  0.2640E-83  0.4600E+03
 14.480  0.2640E-83  0.4600E+03
 14.500  0.2640E-83  0.4600E+03
 14.520  0.2640E-83  0.4600E+03
 14.540  0.2640E-83  0.4600E+03
 14.560  0.2640E-83  0.4600E+03
 14.580  0.2640E-83  0.4600E+03
 14.600  0.2640E-83  0.4600E+03
 14.620  0.2640E-83  0.4600E+03
 14.640  0.2640E-83  0.4600E+03
 14.660  0.2640E-83  0.4600E+03
 14.680  0.2640E-83  0.4600E+03
 14.700  0.2640E-83  0.4600E+03
 14.720  0.2640E-83  0.4600E+03
 14.740  0.2640E-83  0.4600E+03
 14.760  0.2640E-83  0.4600E+03
 14.780  0.2640E-83  0.4600E+03
 14.800  0.2640E-83  0.4600E+03
 14.820  0.2640E-83  0.4600E+03
 14.840  0.2640E-83  0.4600E+03
 14.860  0.2640E-83  0.4600E+03
 14.880  0.2640E-83  0.4600E+03
 14.900  0.2640E-83  0.4600E+03
 14.920  0.2640E-83  0.4600E+03
 14.940  0.2640E-83  0.4600E+03
 14.960  0.2640E-83  0.4600E+03
 14.980  0.2640E-83  0.4600E+03
 15.000  0.2640E-83  0.4600E+03
 15.020  0.2640E-83  0.4600E+03
 15.040  0.2640E-83  0.4600E+03
 15.060  0.2640E-83  0.4600E+03
 15.080  0.2640E-83  0.4600E+03
 15.100  0.2640E-83  0.4600E+03
 15.120  0.2640E-83  0.4600E+03
 15.140  0.2640E-83  0.4600E+03
 15.160  0.2640E-83  0.4600E+03
 15.180  0.2640E-83  0.4600E+03
 15.200  0.2640E-83  0.4600E+03
 15.220  0.2640E-83  0.4600E+03
 15.240  0.2640E-83  0.4600E+03
 15.260  0.2640E-83  0.4600E+03
 15.280  0.2640E-83  0.4600E+03
 15.300  0.2640E-83  0.4600E+03
 15.320  0.2640E-83  0.4600E+03
 15.340  0.2640E-83  0.4600E+03
 15.360  0.2640E-83  0.4600E+03
 15.380  0.2640E-83  0.4600E+03
 15.400  0.2640E-83  0.4600E+03
 15.420  0.2640E-83  0.4600E+03
 15.440  0.2640E-83  0.4600E+03
 15.460  0.2640E-83  0.4600E+03
 15.480  0.2640E-83  0.4600E+03
 15.500  0.2640E-83  0.4600E+03
 15.520  0.2640E-83  0.4600E+03
 15.540  0.2640E-83  0.4600E+03
 15.560  0.2640E-83  0.4600E+03
 15.580  0.2640E-83  0.4600E+03
 15.600  0.2640E-83  0.4600E+03
 15.620  0.2640E-83  0.4600E+03
 15.640  0.2640E-83  0.4600E+03
 15.660  0.2640E-83  0.4600E+03
 15.680  0.2640E-83  0.4600E+03
 15.700  0.2640E-83  0.4600E+03
 15.720  0.2640E-83  0.4600E+03
 15.740  0.2640E-83  0.4600E+03
 15.760  0.2640E-83  0.4600E+03
 15.780  0.2640E-83  0.4600E+03
 15.800  0.2640E-83  0.4600E+03
 15.820  0.2640E-83  0.4600E+03
 15.840  0.2640E-83  0.4600E+03
 15.860  0.2640E-83  0.4600E+03
 15.880  0.2640E-83  0.4600E+03
 15.900  0.2640E-83  0.4600E+03
 15.920  0.2640E-83  0.4600E+03
 15.940  0.2640E-83  0.4600E+03
 15.960  0.2640E-83  0.4600E+03
 15.980  0.2640E-83  0.4600E+03
 16.000  0.2640E-83  0.4600E+03
 16.020  0.2640E-83  0.4600E+03
 16.040  0.2640E-83  0.4600E+03
 16.060  0.2640E-83  0.4600E+03
 16.080  0.2640E-83  0.4600E+03
 16.100  0.2640E-83  0.4600E+03
 16.120  0.2640E-83  0.4600E+03
 16.140  0.2640E-83  0.4600E+03
 16.160  0.2640E-83  0.4600E+03
 16.180  0.2640E-83  0.4600E+03
 16.200  0.2640E-83  0.4600E+03
 16.220  0.2640E-83  0.4600E+03
 16.240  0.2640E-83  0.4600E+03
 16.260  0.2640E-83  0.4600E+03
 16.280  0.2640E-83  0.4600E+03
 16.300  0.2640E-83  0.4600E+03
 16.320  0.2640E-83  0.4600E+03
 16.340  0.2640E-83  0.4600E+03
 16.360  0.2640E-83  0.4600E+03
 16.380  0.2640E-83  0.4600E+03
 16.400  0.2640E-83  0.4600E+03
 16.420  0.2640E-83  0.4600E+03
 16.440  0.2640E-83  0.4600E+03
 16.460  0.2640E-83  0.4600E+03
 16.480  0.2640E-83  0.4600E+03
 16.500  0.2640E-83  0.4600E+03
 16.520  0.2640E-83  0.4600E+03
 16.540  0.2640E-83  0.4600E+03
 16.560  0.2640E-83  0.4600E+03
 16.580  0.2640E-83  0.4600E+03
 16.600  0.2640E-83  0.4600E+03
 16.620  0.2640E-83  0.4600E+03
 16.640  0.2640E-83  0.4600E+03
 16.660  0.2640E-83  0.4600E+03
 16.680  0.2640E-83  0.4600E+03
 16.700  0.2640E-83  0.4600E+03
 16.720  0.2640E-83  0.4600E+03
 16.740  0.2640E-83  0.4600E+03
 16.760  0.2640E-83  0.4600E+03
 16.780  0.2640E-83  0.4600E+03
 16.800  0.2640E-83  0.4600E+03
 16.820  0.2640E-83  0.4600E+03
 16.840  0.2640E-83  0.4600E+03
 16.860  0.2640E-83  0.4600E+03
 16.880  0.2640E-83  0.4600E+03
 16.900  0.2640E-83  0.4600E+03
 16.920  0.2640E-83  0.4600E+03
 16.940  0.2640E-83  0.4600E+03
 16.960  0.2640E-83  0.4600E+03
 16.980  0.2640E-83  0.4600E+03
 17.000  0.2640E-83  0.4600E+03
 17.020  0.2640E-83  0.4600E+03
 17.040  0.2640E-83  0.4600E+03
 17.060  0.2640E-83  0.4600E+03
 17.080  0.2640E-83  0.4600E+03
 17.100  0.2640E-83  0.4600E+03
 17.120  0.2640E-83  0.4600E+03
 17.140  0.2640E-83  0.4600E+03
 17.160  0.2640E-83  0.4600E+03
 17.180  0.2640E-83  0.4600E+03
 17.200  0.2640E-83  0.4600E+03
 17.220  0.2640E-83  0.4600E+03
 17.240  0.2640E-83  0.4600E+03
 17.260  0.2640E-83  0.4600E+03
 17.280  0.2640E-83  0.4600E+03
 17.300  0.2640E-83  0.4600E+03
 17.320  0.2640E-83  0.4600E+03
 17.340  0.2640E-83  0.4600E+03
 17.360  0.2640E-83  0.4600E+03
 17.380  0.2640E-83  0.4600E+03
 17.400  0.2640E-83  0.4600E+03
 17.420  0.2640E-83  0.4600E+03
 17.440  0.2640E-83  0.4600E+03
 17.460  0.2640E-83  0.4600E+03
 17.480  0.2640E-83  0.4600E+03
 17.500  0.2640E-83  0.4600E+03
 17.520  0.2640E-83  0.4600E+03
 17.540  0.2640E-83  0.4600E+03
 17.560  0.2640E-83  0.4600E+03
 17.580  0.2640E-83  0.4600E+03
 17.600  0.2640E-83  0.4600E+03
 17.620  0.2640E-83  0.4600E+03
 17.640  0.2640E-83  0.4600E+03
 17.660  0.2640E-83  0.4600E+03
 17.680  0.2640E-83  0.4600E+03
 17.700  0.2640E-83  0.4600E+03
 17.720  0.2640E-83  0.4600E+03
 17.740  0.2640E-83  0.4600E+03
 17.760  0.2640E-83  0.4600E+03
 17.780  0.2640E-83  0.4600E+03
 17.800  0.2640E-83  0.4600E+03
 17.820  0.2640E-83  0.4600E+03
 17.840  0.2640E-83  0.4600E+03
 17.860  0.2640E-83  0.4600E+03
 17.880  0.2640E-83  0.4600E+03
 17.900  0.2640E-83  0.4600E+03
 17.920  0.2640E-83  0.4600E+03
 17.940  0.2640E-83  0.4600E+03
 17.960  0.2640E-83  0.4600E+03
 17.980  0.2640E-83  0.4600E+03
 18.000  0.2640E-83  0.4600E+03
 18.020  0.2640E-83  0.4600E+03
 18.040  0.2640E-83  0.4600E+03
 18.060  0.2640E-83  0.4600E+03
 18.080  0.2640E-83  0.4600E+03
 18.100  0.2640E-83  0.4600E+03
 18.120  0.2640E-83  0.4600E+03
 18.140  0.2640E-83  0.4600E+03
 18.160  0.2640E-83  0.4600E+03
 18.180  0.2640E-83  0.4600E+03
 18.200  0.2640E-83  0.4600E+03
 18.220  0.2640E-83  0.4600E+03
 18.240  0.2640E-83  0.4600E+03
 18.260  0.2640E-83  0.4600E+03
 18.280  0.2640E-83  0.4600E+03
 18.300  0.2640E-83  0.4600E+03
 18.320  0.2640E-83  0.4600E+03
 18.340  0.2640E-83  0.4600E+03
 18.360  0.2640E-83  0.4600E+03
 18.380  0.2640E-83  0.4600E+03
 18.400  0.2640E-83  0.4600E+03
 18.420  0.2640E-83  0.4600E+03
 18.440  0.2640E-83  0.4600E+03
 18.460  0.2640E-83  0.4600E+03
 18.480  0.2640E-83  0.4600E+03
 18.500  0.2640E-83  0.4600E+03
 18.520  0.2640E-83  0.4600E+03
 18.540  0.2640E-83  0.4600E+03
 18.560  0.2640E-83  0.4600E+03
 18.580  0.2640E-83  0.4600E+03
 18.600  0.2640E-83  0.4600E+03
 18.620  0.2640E-83  0.4600E+03
 18.640  0.2640E-83  0.4600E+03
 18.660  0.2640E-83  0.4600E+03
 18.680  0.2640E-83  0.4600E+03
 18.700  0.2640E-83  0.4600E+03
 18.720  0.2640E-83  0.4600E+03
 18.740  0.2640E-83  0.4600E+03
 18.760  0.2640E-83  0.4600E+03
 18.780  0.2640E-83  0.4600E+03
 18.800  0.2640E-83  0.4600E+03
 18.820  0.2640E-83  0.4600E+03
 18.840  0.2640E-83  0.4600E+03
 18.860  0.2640E-83  0.4600E+03
 18.880  0.2640E-83  0.4600E+03
 18.900  0.2640E-83  0.4600E+03
 18.920  0.2640E-83  0.4600E+03
 18.940  0.2640E-83  0.4600E+03
 18.960  0.2640E-83  0.4600E+03
 18.980  0.2640E-83  0.4600E+03
 19.000  0.2640E-83  0.4600E+03
 19.020  0.2640E-83  0.4600E+03
 19.040  0.2640E-83  0.4600E+03
 19.060  0.2640E-83  0.4600E+03
 19.080  0.2640E-83  0.4600E+03
 19.100  0.2640E-83  0.4600E+03
 19.120  0.2640E-83  0.4600E+03
 19.140  0.2640E-83  0.4600E+03
 19.160  0.2640E-83  0.4600E+03
 19.180  0.2640E-83  0.4600E+03
 19.200  0.2640E-83  0.4600E+03
 19.220  0.2640E-83  0.4600E+03
 19.240  0.2640E-83  0.4600E+03
 19.260  0.2640E-83  0.4600E+03
 19.280  0.2640E-83  0.4600E+03
 19.300  0.2640E-83  0.4600E+03
 19.320  0.2640E-83  0.4600E+03
 19.340  0.2640E-83  0.4600E+03
 19.360  0.2640E-83  0.4600E+03
 19.380  0.2640E-83  0.4600E+03
 19.400  0.2640E-83  0.4600E+03
 19.420  0.2640E-83  0.4600E+03
 19.440  0.2640E-83  0.4600E+03
 19.460  0.2640E-83  0.4600E+03
 19.480  0.2640E-83  0.4600E+03
 19.500  0.2640E-83  0.4600E+03
 19.520  0.2640E-83  0.4600E+03
 19.540  0.2640E-83  0.4600E+03
 19.560  0.2640E-83  0.4600E+03
 19.580  0.2640E-83  0.4600E+03
 19.600  0.2640E-83  0.4600E+03
 19.620  0.2640E-83  0.4600E+03
 19.640  0.2640E-83  0.4600E+03
 19.660  0.2640E-83  0.4600E+03
 19.680  0.2640E-83  0.4600E+03
 19.700  0.2640E-83  0.4600E+03
 19.720  0.2640E-83  0.4600E+03
 19.740  0.2640E-83  0.4600E+03
 19.760  0.2640E-83  0.4600E+03
 19.780  0.2640E-83  0.4600E+03
 19.800  0.2640E-83  0.4600E+03
 19.820  0.2640E-83  0.4600E+03
 19.840  0.2640E-83  0.4600E+03
 19.860  0.2640E-83  0.4600E+03
 19.880  0.2640E-83  0.4600E+03
 19.900  0.2640E-83  0.4600E+03
 19.920  0.2640E-83  0.4600E+03
 19.940  0.2640E-83  0.4600E+03
 19.960  0.2640E-83  0.4600E+03
 19.980  0.2640E-83  0.4600E+03
 20.000  0.2640E-83  0.4600E+03
 20.020  0.2640E-83  0.4600E+03
 20.040  0.2640E-83  0.4600E+03
 20.060  0.2640E-83  0.4600E+03
 20.080  0.2640E-83  0.4600E+03
 20.100  0.2640E-83  0.4600E+03
 20.120  0.2640E-83  0.4600E+03
 20.140  0.2640E-83  0.4600E+03
 20.160  0.2640E-83  0.4600E+03
 20.180  0.2640E-83  0.4600E+03
 20.200  0.2640E-83  0.4600E+03
 20.220  0.2640E-83  0.4600E+03
 20.240  0.2640E-83  0.4600E+03
 20.260  0.2640E-83  0.4600E+03
 20.280  0.2640E-83  0.4600E+03
 20.300  0.2640E-83  0.4600E+03
 20.320  0.2640E-83  0.4600E+03
 20.340  0.2640E-83  0.4600E+03
 20.360  0.2640E-83  0.4600E+03
 20.380  0.2640E-83  0.4600E+03
 20.400  0.2640E-83  0.4600E+03
 20.420  0.2640E-83  0.4600E+03
 20.440  0.2640E-83  0.4600E+03
 20.460  0.2640E-83  0.4600E+03
 20.480  0.2640E-83  0.4600E+03
 20.500  0.2640E-83  0.4600E+03
 20.520  0.2640E-83  0.4600E+03
 20.540  0.2640E-83  0.4600E+03
 20.560  0.2640E-83  0.4600E+03
 20.580  0.2640E-83  0.4600E+03
 20.600  0.2640E-83  0.4600E+03
 20.620  0.2640E-83  0.4600E+03
 20.640  0.2640E-83  0.4600E+03
 20.660  0.2640E-83  0.4600E+03
 20.680  0.2640E-83  0.4600E+03
 20.700  0.2640E-83  0.4600E+03
 20.720  0.2640E-83  0.4600E+03
 20.740  0.2640E-83  0.4600E+03
 20.760  0.2640E-83  0.4600E+03
 20.780  0.2640E-83  0.4600E+03
 20.800  0.2640E-83  0.4600E+03
 20.820  0.2640E-83  0.4600E+03
 20.840  0.2640E-83  0.4600E+03
 20.860  0.2640E-83  0.4600E+03
 20.880  0.2640E-83  0.4600E+03
 20.900  0.2640E-83  0.4600E+03
 20.920  0.2640E-83  0.4600E+03
 20.940  0.2640E-83  0.4600E+03
 20.960  0.2640E-83  0.4600E+03
 20.980  0.2640E-83  0.4600E+03
 21.000  0.2640E-83  0.4600E+03
 21.020  0.2640E-83  0.4600E+03
 21.040  0.2640E-83  0.4600E+03
 21.060  0.2640E-83  0.4600E+03
 21.080  0.2640E-83  0.4600E+03
 21.100  0.2640E-83  0.4600E+03
 21.120  0.2640E-83  0.4600E+03
 21.140  0.2640E-83  0.4600E+03
 21.160  0.2640E-83  0.4600E+03
 21.180  0.2640E-83  0.4600E+03
 21.200  0.2640E-83  0.4600E+03
 21.220  0.2640E-83  0.4600E+03
 21.240  0.2640E-83  0.4600E+03
 21.260  0.2640E-83  0.4600E+03
 21.280  0.2640E-83  0.4600E+03
 21.300  0.2640E-83  0.4600E+03
 21.320  0.2640E-83  0.4600E+03
 21.340  0.2640E-83  0.4600E+03
 21.360  0.2640E-83  0.4600E+03
 21.380  0.2640E-83  0.4600E+03
 21.400  0.2640E-83  0.4600E+03
 21.420  0.2640E-83  0.4600E+03
 21.440  0.2640E-83  0.4600E+03
 21.460  0.2640E-83  0.4600E+03
 21.480  0.2640E-83  0.4600E+03
 21.500  0.2640E-83  0.4600E+03
 21.520  0.2640E-83  0.4600E+03
 21.540  0.2640E-83  0.4600E+03
 21.560  0.2640E-83  0.4600E+03
 21.580  0.2640E-83  0.4600E+03
 21.600  0.2640E-83  0.4600E+03
 21.620  0.2640E-83  0.4600E+03
 21.640  0.2640E-83  0.4600E+03
 21.660  0.2640E-83  0.4600E+03
 21.680  0.2640E-83  0.4600E+03
 21.700  0.2640E-83  0.4600E+03
 21.720  0.2640E-83  0.4600E+03
 21.740  0.2640E-83  0.4600E+03
 21.760  0.2640E-83  0.4600E+03
 21.780  0.2640E-83  0.4600E+03
 21.800  0.2640E-83  0.4600E+03
 21.820  0.2640E-83  0.4600E+03
 21.840  0.2640E-83  0.4600E+03
 21.860  0.2640E-83  0.4600E+03
 21.880  0.2640E-83  0.4600E+03
 21.900  0.2640E-83  0.4600E+03
 21.920  0.2640E-83  0.4600E+03
 21.940  0.2640E-83  0.4600E+03
 21.960  0.2640E-83  0.4600E+03
 21.980  0.2640E-83  0.4600E+03
 22.000  0.2640E-83  0.4600E+03
 22.020  0.2640E-83  0.4600E+03
 22.040  0.2640E-83  0.4600E+03
 22.060  0.2640E-83  0.4600E+03
 22.080  0.2640E-83  0.4600E+03
 22.100  0.2640E-83  0.4600E+03
 22.120  0.2640E-83  0.4600E+03
 22.140  0.2640E-83  0.4600E+03
 22.160  0.2640E-83  0.4600E+03
 22.180  0.2640E-83  0.4600E+03
 22.200  0.2640E-83  0.4600E+03
 22.220  0.2640E-83  0.4600E+03
 22.240  0.2640E-83  0.4600E+03
 22.260  0.2640E-83  0.4600E+03
 22.280  0.2640E-83  0.4600E+03
 22.300  0.2640E-83  0.4600E+03
 22.320  0.2640E-83  0.4600E+03
 22.340  0.2640E-83  0.4600E+03
 22.360  0.2640E-83  0.4600E+03
 22.380  0.2640E-83  0.4600E+03
 22.400  0.2640E-83  0.4600E+03
 22.420  0.2640E-83  0.4600E+03
 22.440  0.2640E-83  0.4600E+03
 22.460  0.2640E-83  0.4600E+03
 22.480  0.2640E-83  0.4600E+03
 22.500  0.2640E-83  0.4600E+03
 22.520  0.2640E-83  0.4600E+03
 22.540  0.2640E-83  0.4600E+03
 22.560  0.2640E-83  0.4600E+03
 22.580  0.2640E-83  0.4600E+03
 22.600  0.2640E-83  0.4600E+03
 22.620  0.2640E-83  0.4600E+03
 22.640  0.2640E-83  0.4600E+03
 22.660  0.2640E-83  0.4600E+03
 22.680  0.2640E-83  0.4600E+03
 22.700  0.2640E-83  0.4600E+03
 22.720  0.2640E-83  0.4600E+03
 22.740  0.2640E-83  0.4600E+03
 22.760  0.2640E-83  0.4600E+03
 22.780  0.2640E-83  0.4600E+03
 22.800  0.2640E-83  0.4600E+03
 22.820  0.2640E-83  0.4600E+03
 22.840  0.2640E-83  0.4600E+03
 22.860  0.2640E-83  0.4600E+03
 22.880  0.2640E-83  0.4600E+03
 22.900  0.2640E-83  0.4600E+03
 22.920  0.2640E-83  0.4600E+03
 22.940  0.2640E-83  0.4600E+03
 22.960  0.2640E-83  0.4600E+03
 22.980  0.2640E-83  0.4600E+03
 23.000  0.2640E-83  0.4600E+03
 23.020  0.2640E-83  0.4600E+03
 23.040  0.2640E-83  0.4600E+03
 23.060  0.2640E-83  0.4600E+03
 23.080  0.2640E-83  0.4600E+03
 23.100  0.2640E-83  0.4600E+03
 23.120  0.2640E-83  0.4600E+03
 23.140  0.2640E-83  0.4600E+03
 23.160  0.2640E-83  0.4600E+03
 23.180  0.2640E-83  0.4600E+03
 23.200  0.2640E-83  0.4600E+03
 23.220  0.2640E-83  0.4600E+03
 23.240  0.2640E-83  0.4600E+03
 23.260  0.2640E-83  0.4600E+03
 23.280  0.2640E-83  0.4600E+03
 23.300  0.2640E-83  0.4600E+03
 23.320  0.2640E-83  0.4600E+03
 23.340  0.2640E-83  0.4600E+03
 23.360  0.2640E-83  0.4600E+03
 23.380  0.2640E-83  0.4600E+03
 23.400  0.2640E-83  0.4600E+03
 23.420  0.2640E-83  0.4600E+03
 23.440  0.2640E-83  0.4600E+03
 23.460  0.2640E-83  0.4600E+03
 23.480  0.2640E-83  0.4600E+03
 23.500  0.2640E-83  0.4600E+03
 23.520  0.2640E-83  0.4600E+03
 23.540  0.2640E-83  0.4600E+03
 23.560  0.2640E-83  0.4600E+03
 23.580  0.2640E-83  0.4600E+03
 23.600  0.2640E-83  0.4600E+03
 23.620  0.2640E-83  0.4600E+03
 23.640  0.2640E-83  0.4600E+03
 23.660  0.2640E-83  0.4600E+03
 23.680  0.2640E-83  0.4600E+03
 23.700  0.2640E-83  0.4600E+03
 23.720  0.2640E-83  0.4600E+03
 23.740  0.2640E-83  0.4600E+03
 23.760  0.2640E-83  0.4600E+03
 23.780  0.2640E-83  0.4600E+03
 23.800  0.2640E-83  0.4600E+03
 23.820  0.2640E-83  0.4600E+03
 23.840  0.2640E-83  0.4600E+03
 23.860  0.2640E-83  0.4600E+03
 23.880  0.2640E-83  0.4600E+03
 23.900  0.2640E-83  0.4600E+03
 23.920  0.2640E-83  0.4600E+03
 23.940  0.2640E-83  0.4600E+03
 23.960  0.2640E-83  0.4600E+03
 23.980  0.2640E-83  0.4600E+03
 24.000  0.2640E-83  0.4600E+03
 24.020  0.2640E-83  0.4600E+03
 24.040  0.2640E-83  0.4600E+03
 24.060  0.2640E-83  0.4600E+03
 24.080  0.2640E-83  0.4600E+03
 24.100  0.2640E-83  0.4600E+03
 24.120  0.2640E-83  0.4600E+03
 24.140  0.2640E-83  0.4600E+03
 24.160  0.2640E-83  0.4600E+03
 24.180  0.2640E-83  0.4600E+03
 24.200  0.2640E-83  0.4600E+03
 24.220  0.2640E-83  0.4600E+03
 24.240  0.2640E-83  0.4600E+03
 24.260  0.2640E-83  0.4600E+03
 24.280  0.2640E-83  0.4600E+03
 24.300  0.2640E-83  0.4600E+03
 24.320  0.2640E-83  0.4600E+03
 24.340  0.2640E-83  0.4600E+03
 24.360  0.2640E-83  0.4600E+03
 24.380  0.2640E-83  0.4600E+03
 24.400  0.2640E-83  0.4600E+03
 24.420  0.2640E-83  0.4600E+03
 24.440  0.2640E-83  0.4600E+03
 24.460  0.2640E-83  0.4600E+03
 24.480  0.2640E-83  0.4600E+03
 24.500  0.2640E-83  0.4600E+03
 24.520  0.2640E-83  0.4600E+03
 24.540  0.2640E-83  0.4600E+03
 24.560  0.2640E-83  0.4600E+03
 24.580  0.2640E-83  0.4600E+03
 24.600  0.2640E-83  0.4600E+03
 24.620  0.2640E-83  0.4600E+03
 24.640  0.2640E-83  0.4600E+03
 24.660  0.2640E-83  0.4600E+03
 24.680  0.2640E-83  0.4600E+03
 24.700  0.2640E-83  0.4600E+03
 24.720  0.2640E-83  0.4600E+03
 24.740  0.2640E-83  0.4600E+03
 24.760  0.2640E-83  0.4600E+03
 24.780  0.2640E-83  0.4600E+03
 24.800  0.2640E-83  0.4600E+03
 24.820  0.2640E-83  0.4600E+03
 24.840  0.2640E-83  0.4600E+03
 24.860  0.2640E-83  0.4600E+03
 24.880  0.2640E-83  0.4600E+03
 24.900  0.2640E-83  0.4600E+03
 24.920  0.2640E-83  0.4600E+03
 24.940  0.2640E-83  0.4600E+03
 24.960  0.2640E-83  0.4600E+03
 24.980  0.2640E-83  0.4600E+03
 25.000  0.2640E-83  0.4600E+03
 25.020  0.2640E-83  0.4600E+03
 25.040  0.2640E-83  0.4600E+03
 25.060  0.2640E-83  0.4600E+03
 25.080  0.2640E-83  0.4600E+03
 25.100  0.2640E-83  0.4600E+03
 25.120  0.2640E-83  0.4600E+03
 25.140  0.2640E-83  0.4600E+03
 25.160  0.2640E-83  0.4600E+03
 25.180  0.2640E-83  0.4600E+03
 25.200  0.2640E-83  0.4600E+03
 25.220  0.2640E-83  0.4600E+03
 25.240  0.2640E-83  0.4600E+03
 25.260  0.2640E-83  0.4600E+03
 25.280  0.2640E-83  0.4600E+03
 25.300  0.2640E-83  0.4600E+03
 25.320  0.2640E-83  0.4600E+03
 25.340  0.2640E-83  0.4600E+03
 25.360  0.2640E-83  0.4600E+03
 25.380  0.2640E-83  0.4600E+03
 25.400  0.2640E-83  0.4600E+03
 25.420  0.2640E-83  0.4600E+03
 25.440  0.2640E-83  0.4600E+03
 25.460  0.2640E-83  0.4600E+03
 25.480  0.2640E-83  0.4600E+03
 25.500  0.2640E-83  0.4600E+03
 25.520  0.2640E-83  0.4600E+03
 25.540  0.2640E-83  0.4600E+03
 25.560  0.2640E-83  0.4600E+03
 25.580  0.2640E-83  0.4600E+03
 25.600  0.2640E-83  0.4600E+03
 25.620  0.2640E-83  0.4600E+03
 25.640  0.2640E-83  0.4600E+03
 25.660  0.2640E-83  0.4600E+03
 25.680  0.2640E-83  0.4600E+03
 25.700  0.2640E-83  0.4600E+03
 25.720  0.2640E-83  0.4600E+03
 25.740  0.2640E-83  0.4600E+03
 25.760  0.2640E-83  0.4600E+03
 25.780  0.2640E-83  0.4600E+03
 25.800  0.2640E-83  0.4600E+03
 25.820  0.2640E-83  0.4600E+03
 25.840  0.2640E-83  0.4600E+03
 25.860  0.2640E-83  0.4600E+03
 25.880  0.2640E-83  0.4600E+03
 25.900  0.2640E-83  0.4600E+03
 25.920  0.2640E-83  0.4600E+03
 25.940  0.2640E-83  0.4600E+03
 25.960  0.2640E-83  0.4600E+03
 25.980  0.2640E-83  0.4600E+03
 26.000  0.2640E-83  0.4600E+03
 26.020  0.2640E-83  0.4600E+03
 26.040  0.2640E-83  0.4600E+03
 26.060  0.2640E-83  0.4600E+03
 26.080  0.2640E-83  0.4600E+03
 26.100  0.2640E-83  0.4600E+03
 26.120  0.2640E-83  0.4600E+03
 26.140  0.2640E-83  0.4600E+03
 26.160  0.2640E-83  0.4600E+03
 26.180  0.2640E-83  0.4600E+03
 26.200  0.2640E-83  0.4600E+03
 26.220  0.2640E-83  0.4600E+03
 26.240  0.2640E-83  0.4600E+03
 26.260  0.2640E-83  0.4600E+03
 26.280  0.2640E-83  0.4600E+03
 26.300  0.2640E-83  0.4600E+03
 26.320  0.2640E-83  0.4600E+03
 26.340  0.2640E-83  0.4600E+03
 26.360  0.2640E-83  0.4600E+03
 26.380  0.2640E-83  0.4600E+03
 26.400  0.2640E-83  0.4600E+03
 26.420  0.2640E-83  0.4600E+03
 26.440  0.2640E-83  0.4600E+03
 26.460  0.2640E-83  0.4600E+03
 26.480  0.2640E-83  0.4600E+03
 26.500  0.2640E-83  0.4600E+03
 26.520  0.2640E-83  0.4600E+03
 26.540  0.2640E-83  0.4600E+03
 26.560  0.2640E-83  0.4600E+03
 26.580  0.2640E-83  0.4600E+03
 26.600  0.2640E-83  0.4600E+03
 26.620  0.2640E-83  0.4600E+03
 26.640  0.2640E-83  0.4600E+03
 26.660  0.2640E-83  0.4600E+03
 26.680  0.2640E-83  0.4600E+03
 26.700  0.2640E-83  0.4600E+03
 26.720  0.2640E-83  0.4600E+03
 26.740  0.2640E-83  0.4600E+03
 26.760  0.2640E-83  0.4600E+03
 26.780  0.2640E-83  0.4600E+03
 26.800  0.2640E-83  0.4600E+03
 26.820  0.2640E-83  0.4600E+03
 26.840  0.2640E-83  0.4600E+03
 26.860  0.2640E-83  0.4600E+03
 26.880  0.2640E-83  0.4600E+03
 26.900  0.2640E-83  0.4600E+03
 26.920  0.2640E-83  0.4600E+03
 26.940  0.2640E-83  0.4600E+03
 26.960  0.2640E-83  0.4600E+03
 26.980  0.2640E-83  0.4600E+03
 27.000  0.2640E-83  0.4600E+03
 27.020  0.2640E-83  0.4600E+03
 27.040  0.2640E-83  0.4600E+03
 27.060  0.2640E-83  0.4600E+03
 27.080  0.2640E-83  0.4600E+03
 27.100  0.2640E-83  0.4600E+03
 27.120  0.2640E-83  0.4600E+03
 27.140  0.2640E-83  0.4600E+03
 27.160  0.2640E-83  0.4600E+03
 27.180  0.2640E-83  0.4600E+03
 27.200  0.2640E-83  0.4600E+03
 27.220  0.2640E-83  0.4600E+03
 27.240  0.2640E-83  0.4600E+03
 27.260  0.2640E-83  0.4600E+03
 27.280  0.2640E-83  0.4600E+03
 27.300  0.2640E-83  0.4600E+03
 27.320  0.2640E-83  0.4600E+03
 27.340  0.2640E-83  0.4600E+03
 27.360  0.2640E-83  0.4600E+03
 27.380  0.2640E-83  0.4600E+03
 27.400  0.2640E-83  0.4600E+03
 27.420  0.2640E-83  0.4600E+03
 27.440  0.2640E-83  0.4600E+03
 27.460  0.2640E-83  0.4600E+03
 27.480  0.2640E-83  0.4600E+03
 27.500  0.2640E-83  0.4600E+03
 27.520  0.2640E-83  0.4600E+03
 27.540  0.2640E-83  0.4600E+03
 27.560  0.2640E-83  0.4600E+03
 27.580  0.2640E-83  0.4600E+03
 27.600  0.2640E-83  0.4600E+03
 27.620  0.2640E-83  0.4600E+03
 27.640  0.2640E-83  0.4600E+03
 27.660  0.2640E-83  0.4600E+03
 27.680  0.2640E-83  0.4600E+03
 27.700  0.2640E-83  0.4600E+03
 27.720  0.2640E-83  0.4600E+03
 27.740  0.2640E-83  0.4600E+03
 27.760  0.2640E-83  0.4600E+03
 27.780  0.2640E-83  0.4600E+03
 27.800  0.2640E-83  0.4600E+03
 27.820  0.2640E-83  0.4600E+03
 27.840  0.2640E-83  0.4600E+03
 27.860  0.2640E-83  0.4600E+03
 27.880  0.2640E-83  0.4600E+03
 27.900  0.2640E-83  0.4600E+03
 27.920  0.2640E-83  0.4600E+03
 27.940  0.2640E-83  0.4600E+03
 27.960  0.2640E-83  0.4600E+03
 27.980  0.2640E-83  0.4600E+03
 28.000  0.2640E-83  0.4600E+03
 28.020  0.2640E-83  0.4600E+03
 28.040  0.2640E-83  0.4600E+03
 28.060  0.2640E-83  0.4600E+03
 28.080  0.2640E-83  0.4600E+03
 28.100  0.2640E-83  0.4600E+03
 28.120  0.2640E-83  0.4600E+03
 28.140  0.2640E-83  0.4600E+03
 28.160  0.2640E-83  0.4600E+03
 28.180  0.2640E-83  0.4600E+03
 28.200  0.2640E-83  0.4600E+03
 28.220  0.2640E-83  0.4600E+03
 28.240  0.2640E-83  0.4600E+03
 28.260  0.2640E-83  0.4600E+03
 28.280  0.2640E-83  0.4600E+03
 28.300  0.2640E-83  0.4600E+03
 28.320  0.2640E-83  0.4600E+03
 28.340  0.2640E-83  0.4600E+03
 28.360  0.2640E-83  0.4600E+03
 28.380  0.2640E-83  0.4600E+03
 28.400  0.2640E-83  0.4600E+03
 28.420  0.2640E-83  0.4600E+03
 28.440  0.2640E-83  0.4600E+03
 28.460  0.2640E-83  0.4600E+03
 28.480  0.2640E-83  0.4600E+03
 28.500  0.2640E-83  0.4600E+03
 28.520  0.2640E-83  0.4600E+03
 28.540  0.2640E-83  0.4600E+03
 28.560  0.2640E-83  0.4600E+03
 28.580  0.2640E-83  0.4600E+03
 28.600  0.2640E-83  0.4600E+03
 28.620  0.2640E-83  0.4600E+03
 28.640  0.2640E-83  0.4600E+03
 28.660  0.2640E-83  0.4600E+03
 28.680  0.2640E-83  0.4600E+03
 28.700  0.2640E-83  0.4600E+03
 28.720  0.2640E-83  0.4600E+03
 28.740  0.2640E-83  0.4600E+03
 28.760  0.2640E-83  0.4600E+03
 28.780  0.2640E-83  0.4600E+03
 28.800  0.2640E-83  0.4600E+03
 28.820  0.2640E-83  0.4600E+03
 28.840  0.2640E-83  0.4600E+03
 28.860  0.2640E-83  0.4600E+03
 28.880  0.2640E-83  0.4600E+03
 28.900  0.2640E-83  0.4600E+03
 28.920  0.2640E-83  0.4600E+03
 28.940  0.2640E-83  0.4600E+03
 28.960  0.2640E-83  0.4600E+03
 28.980  0.2640E-83  0.4600E+03
 29.000  0.2640E-83  0.4600E+03
 29.020  0.2640E-83  0.4600E+03
 29.040  0.2640E-83  0.4600E+03
 29.060  0.2640E-83  0.4600E+03
 29.080  0.2640E-83  0.4600E+03
 29.100  0.2640E-83  0.4600E+03
 29.120  0.2640E-83  0.4600E+03
 29.140  0.2640E-83  0.4600E+03
 29.160  0.2640E-83  0.4600E+03
 29.180  0.2640E-83  0.4600E+03
 29.200  0.2640E-83  0.4600E+03
 29.220  0.2640E-83  0.4600E+03
 29.240  0.2640E-83  0.4600E+03
 29.260  0.2640E-83  0.4600E+03
 29.280  0.2640E-83  0.4600E+03
 29.300  0.2640E-83  0.4600E+03
 29.320  0.2640E-83  0.4600E+03
 29.340  0.2640E-83  0.4600E+03
 29.360  0.2640E-83  0.4600E+03
 29.380  0.2640E-83  0.4600E+03
 29.400  0.2640E-83  0.4600E+03
 29.420  0.2640E-83  0.4600E+03
 29.440  0.2640E-83  0.4600E+03
 29.460  0.2640E-83  0.4600E+03
 29.480  0.2640E-83  0.4600E+03
 29.500  0.2640E-83  0.4600E+03
 29.520  0.2640E-83  0.4600E+03
 29.540  0.2640E-83  0.4600E+03
 29.560  0.2640E-83  0.4600E+03
 29.580  0.2640E-83  0.4600E+03
 29.600  0.2640E-83  0.4600E+03
 29.620  0.2640E-83  0.4600E+03
 29.640  0.2640E-83  0.4600E+03
 29.660  0.2640E-83  0.4600E+03
 29.680  0.2640E-83  0.4600E+03
 29.700  0.2640E-83  0.4600E+03
 29.720  0.2640E-83  0.4600E+03
 29.740  0.2640E-83  0.4600E+03
 29.760  0.2640E-83  0.4600E+03
 29.780  0.2640E-83  0.4600E+03
 29.800  0.2640E-83  0.4600E+03
 29.820  0.2640E-83  0.4600E+03
 29.840  0.2640E-83  0.4600E+03
 29.860  0.2640E-83  0.4600E+03
 29.880  0.2640E-83  0.4600E+03
 29.900  0.2640E-83  0.4600E+03
 29.920  0.2640E-83  0.4600E+03
 29.940  0.2640E-83  0.4600E+03
 29.960  0.2640E-83  0.4600E+03
 29.980  0.2640E-83  0.4600E+03
 30.000  0.2640E-83  0.4600E+03
 30.020  0.2640E-83  0.4600E+03
 30.040  0.2640E-83  0.4600E+03
 30.060  0.2640E-83  0.4600E+03
 30.080  0.2640E-83  0.4600E+03
 30.100  0.2640E-83  0.4600E+03
 30.120  0.2640E-83  0.4600E+03
 30.140  0.2640E-83  0.4600E+03
 30.160  0.2640E-83  0.4600E+03
 30.180  0.2640E-83  0.4600E+03
 30.200  0.2640E-83  0.4600E+03
 30.220  0.2640E-83  0.4600E+03
 30.240  0.2640E-83  0.4600E+03
 30.260  0.2640E-83  0.4600E+03
 30.280  0.2640E-83  0.4600E+03
 30.300  0.2640E-83  0.4600E+03
 30.320  0.2640E-83  0.4600E+03
 30.340  0.2640E-83  0.4600E+03
 30.360  0.2640E-83  0.4600E+03
 30.380  0.2640E-83  0.4600E+03
 30.400  0.2640E-83  0.4600E+03
 30.420  0.2640E-83  0.4600E+03
 30.440  0.2640E-83  0.4600E+03
 30.460  0.2640E-83  0.4600E+03
 30.480  0.2640E-83  0.4600E+03
 30.500  0.2640E-83  0.4600E+03
 30.520  0.2640E-83  0.4600E+03
 30.540  0.2640E-83  0.4600E+03
 30.560  0.2640E-83  0.4600E+03
 30.580  0.2640E-83  0.4600E+03
 30.600  0.2640E-83  0.4600E+03
 30.620  0.2640E-83  0.4600E+03
 30.640  0.2640E-83  0.4600E+03
 30.660  0.2640E-83  0.4600E+03
 30.680  0.2640E-83  0.4600E+03
 30.700  0.2640E-83  0.4600E+03
 30.720  0.2640E-83  0.4600E+03
 30.740  0.2640E-83  0.4600E+03
 30.760  0.2640E-83  0.4600E+03
 30.780  0.2640E-83  0.4600E+03
 30.800  0.2640E-83  0.4600E+03
 30.820  0.2640E-83  0.4600E+03
 30.840  0.2640E-83  0.4600E+03
 30.860  0.2640E-83  0.4600E+03
 30.880  0.2640E-83  0.4600E+03
 30.900  0.2640E-83  0.4600E+03
 30.920  0.2640E-83  0.4600E+03
 30.940  0.2640E-83  0.4600E+03
 30.960  0.2640E-83  0.4600E+03
 30.980  0.2640E-83  0.4600E+03
 31.000  0.2640E-83  0.4600E+03
 31.020  0.2640E-83  0.4600E+03
 31.040  0.2640E-83  0.4600E+03
 31.060  0.2640E-83  0.4600E+03
 31.080  0.2640E-83  0.4600E+03
 31.100  0.2640E-83  0.4600E+03
 31.120  0.2640E-83  0.4600E+03
 31.140  0.2640E-83  0.4600E+03
 31.160  0.2640E-83  0.4600E+03
 31.180  0.2640E-83  0.4600E+03
 31.200  0.2640E-83  0.4600E+03
 31.220  0.2640E-83  0.4600E+03
 31.240  0.2640E-83  0.4600E+03
 31.260  0.2640E-83  0.4600E+03
 31.280  0.2640E-83  0.4600E+03
 31.300  0.2640E-83  0.4600E+03
 31.320  0.2640E-83  0.4600E+03
 31.340  0.2640E-83  0.4600E+03
 31.360  0.2640E-83  0.4600E+03
 31.380  0.2640E-83  0.4600E+03
 31.400  0.2640E-83  0.4600E+03
 31.420  0.2640E-83  0.4600E+03
 31.440  0.2640E-83  0.4600E+03
 31.460  0.2640E-83  0.4600E+03
 31.480  0.2640E-83  0.4600E+03
 31.500  0.2640E-83  0.4600E+03
 31.520  0.2640E-83  0.4600E+03
 31.540  0.2640E-83  0.4600E+03
 31.560  0.2640E-83  0.4600E+03
 31.580  0.2640E-83  0.4600E+03
 31.600  0.2640E-83  0.4600E+03
 31.620  0.2640E-83  0.4600E+03
 31.640  0.2640E-83  0.4600E+03
 31.660  0.2640E-83  0.4600E+03
 31.680  0.2640E-83  0.4600E+03
 31.700  0.2640E-83  0.4600E+03
 31.720  0.2640E-83  0.4600E+03
 31.740  0.2640E-83  0.4600E+03
 31.760  0.2640E-83  0.4600E+03
 31.780  0.2640E-83  0.4600E+03
 31.800  0.2640E-83  0.4600E+03
 31.820  0.2640E-83  0.4600E+03
 31.840  0.2640E-83  0.4600E+03
 31.860  0.2640E-83  0.4600E+03
 31.880  0.2640E-83  0.4600E+03
 31.900  0.2640E-83  0.4600E+03
 31.920  0.2640E-83  0.4600E+03
 31.940  0.2640E-83  0.4600E+03
 31.960  0.2640E-83  0.4600E+03
 31.980  0.2640E-83  0.4600E+03
 32.000  0.2640E-83  0.4600E+03
 32.020  0.2640E-83  0.4600E+03
 32.040  0.2640E-83  0.4600E+03
 32.060  0.2640E-83  0.4600E+03
 32.080  0.2640E-83  0.4600E+03
 32.100  0.2640E-83  0.4600E+03
 32.120  0.2640E-83  0.4600E+03
 32.140  0.2640E-83  0.4600E+03
 32.160  0.2640E-83  0.4600E+03
 32.180  0.2640E-83  0.4600E+03
 32.200  0.2640E-83  0.4600E+03
 32.220  0.2640E-83  0.4600E+03
 32.240  0.2640E-83  0.4600E+03
 32.260  0.2640E-83  0.4600E+03
 32.280  0.2640E-83  0.4600E+03
 32.300  0.2640E-83  0.4600E+03
 32.320  0.2640E-83  0.4600E+03
 32.340  0.2640E-83  0.4600E+03
 32.360  0.2640E-83  0.4600E+03
 32.380  0.2640E-83  0.4600E+03
 32.400  0.2640E-83  0.4600E+03
 32.420  0.2640E-83  0.4600E+03
 32.440  0.2640E-83  0.4600E+03
 32.460  0.2640E-83  0.4600E+03
 32.480  0.2640E-83  0.4600E+03
 32.500  0.2640E-83  0.4600E+03
 32.520  0.2640E-83  0.4600E+03
 32.540  0.2640E-83  0.4600E+03
 32.560  0.2640E-83  0.4600E+03
 32.580  0.2640E-83  0.4600E+03
 32.600  0.2640E-83  0.4600E+03
 32.620  0.2640E-83  0.4600E+03
 32.640  0.2640E-83  0.4600E+03
 32.660  0.2640E-83  0.4600E+03
 32.680  0.2640E-83  0.4600E+03
 32.700  0.2640E-83  0.4600E+03
 32.720  0.2640E-83  0.4600E+03
 32.740  0.2640E-83  0.4600E+03
 32.760  0.2640E-83  0.4600E+03
 32.780  0.2640E-83  0.4600E+03
 32.800  0.2640E-83  0.4600E+03
 32.820  0.2640E-83  0.4600E+03
 32.840  0.2640E-83  0.4600E+03
 32.860  0.2640E-83  0.4600E+03
 32.880  0.2640E-83  0.4600E+03
 32.900  0.2640E-83  0.4600E+03
 32.920  0.2640E-83  0.4600E+03
 32.940  0.2640E-83  0.4600E+03
 32.960  0.2640E-83  0.4600E+03
 32.980  0.2640E-83  0.4600E+03
 33.000  0.2640E-83  0.4600E+03
 33.020  0.2640E-83  0.4600E+03
 33.040  0.2640E-83  0.4600E+03
 33.060  0.2640E-83  0.4600E+03
 33.080  0.2640E-83  0.4600E+03
 33.100  0.2640E-83  0.4600E+03
 33.120  0.2640E-83  0.4600E+03
 33.140  0.2640E-83  0.4600E+03
 33.160  0.2640E-83  0.4600E+03
 33.180  0.2640E-83  0.4600E+03
 33.200  0.2640E-83  0.4600E+03
 33.220  0.2640E-83  0.4600E+03
 33.240  0.2640E-83  0.4600E+03
 33.260  0.2640E-83  0.4600E+03
 33.280  0.2640E-83  0.4600E+03
 33.300  0.2640E-83  0.4600E+03
 33.320  0.2640E-83  0.4600E+03
 33.340  0.2640E-83  0.4600E+03
 33.360  0.2640E-83  0.4600E+03
 33.380  0.2640E-83  0.4600E+03
 33.400  0.2640E-83  0.4600E+03
 33.420  0.2640E-83  0.4600E+03
 33.440  0.2640E-83  0.4600E+03
 33.460  0.2640E-83  0.4600E+03
 33.480  0.2640E-83  0.4600E+03
 33.500  0.2640E-83  0.4600E+03
 33.520  0.2640E-83  0.4600E+03
 33.540  0.2640E-83  0.4600E+03
 33.560  0.2640E-83  0.4600E+03
 33.580  0.2640E-83  0.4600E+03
 33.600  0.2640E-83  0.4600E+03
 33.620  0.2640E-83  0.4600E+03
 33.640  0.2640E-83  0.4600E+03
 33.660  0.2640E-83  0.4600E+03
 33.680  0.2640E-83  0.4600E+03
 33.700  0.2640E-83  0.4600E+03
 33.720  0.2640E-83  0.4600E+03
 33.740  0.2640E-83  0.4600E+03
 33.760  0.2640E-83  0.4600E+03
 33.780  0.2640E-83  0.4600E+03
 33.800  0.2640E-83  0.4600E+03
 33.820  0.2640E-83  0.4600E+03
 33.840  0.2640E-83  0.4600E+03
 33.860  0.2640E-83  0.4600E+03
 33.880  0.2640E-83  0.4600E+03
 33.900  0.2640E-83  0.4600E+03
 33.920  0.2640E-83  0.4600E+03
 33.940  0.2640E-83  0.4600E+03
 33.960  0.2640E-83  0.4600E+03
 33.980  0.2640E-83  0.4600E+03
 34.000  0.2640E-83  0.4600E+03
 34.020  0.2640E-83  0.4600E+03
 34.040  0.2640E-83  0.4600E+03
 34.060  0.2640E-83  0.4600E+03
 34.080  0.2640E-83  0.4600E+03
 34.100  0.2640E-83  0.4600E+03
 34.120  0.2640E-83  0.4600E+03
 34.140  0.2640E-83  0.4600E+03
 34.160  0.2640E-83  0.4600E+03
 34.180  0.2640E-83  0.4600E+03
 34.200  0.2640E-83  0.4600E+03
 34.220  0.2640E-83  0.4600E+03
 34.240  0.2640E-83  0.4600E+03
 34.260  0.2640E-83  0.4600E+03
 34.280  0.2640E-83  0.4600E+03
 34.300  0.2640E-83  0.4600E+03
 34.320  0.2640E-83  0.4600E+03
 34.340  0.2640E-83  0.4600E+03
 34.360  0.2640E-83  0.4600E+03
 34.380  0.2640E-83  0.4600E+03
 34.400  0.2640E-83  0.4600E+03
 34.420  0.2640E-83  0.4600E+03
 34.440  0.2640E-83  0.4600E+03
 34.460  0.2640E-83  0.4600E+03
 34.480  0.2640E-83  0.4600E+03
 34.500  0.2640E-83  0.4600E+03
 34.520  0.2640E-83  0.4600E+03
 34.540  0.2640E-83  0.4600E+03
 34.560  0.2640E-83  0.4600E+03
 34.580  0.2640E-83  0.4600E+03
 34.600  0.2640E-83  0.4600E+03
 34.620  0.2640E-83  0.4600E+03
 34.640  0.2640E-83  0.4600E+03
 34.660  0.2640E-83  0.4600E+03
 34.680  0.2640E-83  0.4600E+03
 34.700  0.2640E-83  0.4600E+03
 34.720  0.2640E-83  0.4600E+03
 34.740  0.2640E-83  0.4600E+03
 34.760  0.2640E-83  0.4600E+03
 34.780  0.2640E-83  0.4600E+03
 34.800  0.2640E-83  0.4600E+03
 34.820  0.2640E-83  0.4600E+03
 34.840  0.2640E-83  0.4600E+03
 34.860  0.2640E-83  0.4600E+03
 34.880  0.2640E-83  0.4600E+03
 34.900  0.2640E-83  0.4600E+03
 34.920  0.2640E-83  0.4600E+03
 34.940  0.2640E-83  0.4600E+03
 34.960  0.2640E-83  0.4600E+03
 34.980  0.2640E-83  0.4600E+03
 35.000  0.2640E-83  0.4600E+03
 35.020  0.2640E-83  0.4600E+03
 35.040  0.2640E-83  0.4600E+03
 35.060  0.2640E-83  0.4600E+03
 35.080  0.2640E-83  0.4600E+03
 35.100  0.2640E-83  0.4600E+03
 35.120  0.2640E-83  0.4600E+03
 35.140  0.2640E-83  0.4600E+03
 35.160  0.2640E-83  0.4600E+03
 35.180  0.2640E-83  0.4600E+03
 35.200  0.2640E-83  0.4600E+03
 35.220  0.2640E-83  0.4600E+03
 35.240  0.2640E-83  0.4600E+03
 35.260  0.2640E-83  0.4600E+03
 35.280  0.2640E-83  0.4600E+03
 35.300  0.2640E-83  0.4600E+03
 35.320  0.2640E-83  0.4600E+03
 35.340  0.2640E-83  0.4600E+03
 35.360  0.2640E-83  0.4600E+03
 35.380  0.2640E-83  0.4600E+03
 35.400  0.2640E-83  0.4600E+03
 35.420  0.2640E-83  0.4600E+03
 35.440  0.2640E-83  0.4600E+03
 35.460  0.2640E-83  0.4600E+03
 35.480  0.2640E-83  0.4600E+03
 35.500  0.2640E-83  0.4600E+03
 35.520  0.2640E-83  0.4600E+03
 35.540  0.2640E-83  0.4600E+03
 35.560  0.2640E-83  0.4600E+03
 35.580  0.2640E-83  0.4600E+03
 35.600  0.2640E-83  0.4600E+03
 35.620  0.2640E-83  0.4600E+03
 35.640  0.2640E-83  0.4600E+03
 35.660  0.2640E-83  0.4600E+03
 35.680  0.2640E-83  0.4600E+03
 35.700  0.2640E-83  0.4600E+03
 35.720  0.2640E-83  0.4600E+03
 35.740  0.2640E-83  0.4600E+03
 35.760  0.2640E-83  0.4600E+03
 35.780  0.2640E-83  0.4600E+03
 35.800  0.2640E-83  0.4600E+03
 35.820  0.2640E-83  0.4600E+03
 35.840  0.2640E-83  0.4600E+03
 35.860  0.2640E-83  0.4600E+03
 35.880  0.2640E-83  0.4600E+03
 35.900  0.2640E-83  0.4600E+03
 35.920  0.2640E-83  0.4600E+03
 35.940  0.2640E-83  0.4600E+03
 35.960  0.2640E-83  0.4600E+03
 35.980  0.2640E-83  0.4600E+03
 36.000  0.2640E-83  0.4600E+03
 36.020  0.2640E-83  0.4600E+03
 36.040  0.2640E-83  0.4600E+03
 36.060  0.2640E-83  0.4600E+03
 36.080  0.2640E-83  0.4600E+03
 36.100  0.2640E-83  0.4600E+03
 36.120  0.2640E-83  0.4600E+03
 36.140  0.2640E-83  0.4600E+03
 36.160  0.2640E-83  0.4600E+03
 36.180  0.2640E-83  0.4600E+03
 36.200  0.2640E-83  0.4600E+03
 36.220  0.2640E-83  0.4600E+03
 36.240  0.2640E-83  0.4600E+03
 36.260  0.2640E-83  0.4600E+03
 36.280  0.2640E-83  0.4600E+03
 36.300  0.2640E-83  0.4600E+03
 36.320  0.2640E-83  0.4600E+03
 36.340  0.2640E-83  0.4600E+03
 36.360  0.2640E-83  0.4600E+03
 36.380  0.2640E-83  0.4600E+03
 36.400  0.2640E-83  0.4600E+03
 36.420  0.2640E-83  0.4600E+03
 36.440  0.2640E-83  0.4600E+03
 36.460  0.2640E-83  0.4600E+03
 36.480  0.2640E-83  0.4600E+03
 36.500  0.2640E-83  0.4600E+03
 36.520  0.2640E-83  0.4600E+03
 36.540  0.2640E-83  0.4600E+03
 36.560  0.2640E-83  0.4600E+03
 36.580  0.2640E-83  0.4600E+03
 36.600  0.2640E-83  0.4600E+03
 36.620  0.2640E-83  0.4600E+03
 36.640  0.2640E-83  0.4600E+03
 36.660  0.2640E-83  0.4600E+03
 36.680  0.2640E-83  0.4600E+03
 36.700  0.2640E-83  0.4600E+03
 36.720  0.2640E-83  0.4600E+03
 36.740  0.2640E-83  0.4600E+03
 36.760  0.2640E-83  0.4600E+03
 36.780  0.2640E-83  0.4600E+03
 36.800  0.2640E-83  0.4600E+03
 36.820  0.2640E-83  0.4600E+03
 36.840  0.2640E-83  0.4600E+03
 36.860  0.2640E-83  0.4600E+03
 36.880  0.2640E-83  0.4600E+03
 36.900  0.2640E-83  0.4600E+03
 36.920  0.2640E-83  0.4600E+03
 36.940  0.2640E-83  0.4600E+03
 36.960  0.2640E-83  0.4600E+03
 36.980  0.2640E-83  0.4600E+03
 37.000  0.2640E-83  0.4600E+03
 37.020  0.2640E-83  0.4600E+03
 37.040  0.2640E-83  0.4600E+03
 37.060  0.2640E-83  0.4600E+03
 37.080  0.2640E-83  0.4600E+03
 37.100  0.2640E-83  0.4600E+03
 37.120  0.2640E-83  0.4600E+03
 37.140  0.2640E-83  0.4600E+03
 37.160  0.2640E-83  0.4600E+03
 37.180  0.2640E-83  0.4600E+03
 37.200  0.2640E-83  0.4600E+03
 37.220  0.2640E-83  0.4600E+03
 37.240  0.2640E-83  0.4600E+03
 37.260  0.2640E-83  0.4600E+03
 37.280  0.2640E-83  0.4600E+03
 37.300  0.2640E-83  0.4600E+03
 37.320  0.2640E-83  0.4600E+03
 37.340  0.2640E-83  0.4600E+03
 37.360  0.2640E-83  0.4600E+03
 37.380  0.2640E-83  0.4600E+03
 37.400  0.2640E-83  0.4600E+03
 37.420  0.2640E-83  0.4600E+03
 37.440  0.2640E-83  0.4600E+03
 37.460  0.2640E-83  0.4600E+03
 37.480  0.2640E-83  0.4600E+03
 37.500  0.2640E-83  0.4600E+03
 37.520  0.2640E-83  0.4600E+03
 37.540  0.2640E-83  0.4600E+03
 37.560  0.2640E-83  0.4600E+03
 37.580  0.2640E-83  0.4600E+03
 37.600  0.2640E-83  0.4600E+03
 37.620  0.2640E-83  0.4600E+03
 37.640  0.2640E-83  0.4600E+03
 37.660  0.2640E-83  0.4600E+03
 37.680  0.2640E-83  0.4600E+03
 37.700  0.2640E-83  0.4600E+03
 37.720  0.2640E-83  0.4600E+03
 37.740  0.2640E-83  0.4600E+03
 37.760  0.2640E-83  0.4600E+03
 37.780  0.2640E-83  0.4600E+03
 37.800  0.2640E-83  0.4600E+03
 37.820  0.2640E-83  0.4600E+03
 37.840  0.2640E-83  0.4600E+03
 37.860  0.2640E-83  0.4600E+03
 37.880  0.2640E-83  0.4600E+03
 37.900  0.2640E-83  0.4600E+03
 37.920  0.2640E-83  0.4600E+03
 37.940  0.2640E-83  0.4600E+03
 37.960  0.2640E-83  0.4600E+03
 37.980  0.2640E-83  0.4600E+03
 38.000  0.2640E-83  0.4600E+03
 38.020  0.2640E-83  0.4600E+03
 38.040  0.2640E-83  0.4600E+03
 38.060  0.2640E-83  0.4600E+03
 38.080  0.2640E-83  0.4600E+03
 38.100  0.2640E-83  0.4600E+03
 38.120  0.2640E-83  0.4600E+03
 38.140  0.2640E-83  0.4600E+03
 38.160  0.2640E-83  0.4600E+03
 38.180  0.2640E-83  0.4600E+03
 38.200  0.2640E-83  0.4600E+03
 38.220  0.2640E-83  0.4600E+03
 38.240  0.2640E-83  0.4600E+03
 38.260  0.2640E-83  0.4600E+03
 38.280  0.2640E-83  0.4600E+03
 38.300  0.2640E-83  0.4600E+03
 38.320  0.2640E-83  0.4600E+03
 38.340  0.2640E-83  0.4600E+03
 38.360  0.2640E-83  0.4600E+03
 38.380  0.2640E-83  0.4600E+03
 38.400  0.2640E-83  0.4600E+03
 38.420  0.2640E-83  0.4600E+03
 38.440  0.2640E-83  0.4600E+03
 38.460  0.2640E-83  0.4600E+03
 38.480  0.2640E-83  0.4600E+03
 38.500  0.2640E-83  0.4600E+03
 38.520  0.2640E-83  0.4600E+03
 38.540  0.2640E-83  0.4600E+03
 38.560  0.2640E-83  0.4600E+03
 38.580  0.2640E-83  0.4600E+03
 38.600  0.2640E-83  0.4600E+03
 38.620  0.2640E-83  0.4600E+03
 38.640  0.2640E-83  0.4600E+03
 38.660  0.2640E-83  0.4600E+03
 38.680  0.2640E-83  0.4600E+03
 38.700  0.2640E-83  0.4600E+03
 38.720  0.2640E-83  0.4600E+03
 38.740  0.2640E-83  0.4600E+03
 38.760  0.2640E-83  0.4600E+03
 38.780  0.2640E-83  0.4600E+03
 38.800  0.2640E-83  0.4600E+03
 38.820  0.2640E-83  0.4600E+03
 38.840  0.2640E-83  0.4600E+03
 38.860  0.2640E-83  0.4600E+03
 38.880  0.2640E-83  0.4600E+03
 38.900  0.2640E-83  0.4600E+03
 38.920  0.2640E-83  0.4600E+03
 38.940  0.2640E-83  0.4600E+03
 38.960  0.2640E-83  0.4600E+03
 38.980  0.2640E-83  0.4600E+03
 39.000  0.2640E-83  0.4600E+03
 39.020  0.2640E-83  0.4600E+03
 39.040  0.2640E-83  0.4600E+03
 39.060  0.2640E-83  0.4600E+03
 39.080  0.2640E-83  0.4600E+03
 39.100  0.2640E-83  0.4600E+03
 39.120  0.2640E-83  0.4600E+03
 39.140  0.2640E-83  0.4600E+03
 39.160  0.2640E-83  0.4600E+03
 39.180  0.2640E-83  0.4600E+03
 39.200  0.2640E-83  0.4600E+03
 39.220  0.2640E-83  0.4600E+03
 39.240  0.2640E-83  0.4600E+03
 39.260  0.2640E-83  0.4600E+03
 39.280  0.2640E-83  0.4600E+03
 39.300  0.2640E-83  0.4600E+03
 39.320  0.2640E-83  0.4600E+03
 39.340  0.2640E-83  0.4600E+03
 39.360  0.2640E-83  0.4600E+03
 39.380  0.2640E-83  0.4600E+03
 39.400  0.2640E-83  0.4600E+03
 39.420  0.2640E-83  0.4600E+03
 39.440  0.2640E-83  0.4600E+03
 39.460  0.2640E-83  0.4600E+03
 39.480  0.2640E-83  0.4600E+03
 39.500  0.2640E-83  0.4600E+03
 39.520  0.2640E-83  0.4600E+03
 39.540  0.2640E-83  0.4600E+03
 39.560  0.2640E-83  0.4600E+03
 39.580  0.2640E-83  0.4600E+03
 39.600  0.2640E-83  0.4600E+03
 39.620  0.2640E-83  0.4600E+03
 39.640  0.2640E-83  0.4600E+03
 39.660  0.2640E-83  0.4600E+03
 39.680  0.2640E-83  0.4600E+03
 39.700  0.2640E-83  0.4600E+03
 39.720  0.2640E-83  0.4600E+03
 39.740  0.2640E-83  0.4600E+03
 39.760  0.2640E-83  0.4600E+03
 39.780  0.2640E-83  0.4600E+03
 39.800  0.2640E-83  0.4600E+03
 39.820  0.2640E-83  0.4600E+03
 39.840  0.2640E-83  0.4600E+03
 39.860  0.2640E-83  0.4600E+03
 39.880  0.2640E-83  0.4600E+03
 39.900  0.2640E-83  0.4600E+03
 39.920  0.2640E-83  0.4600E+03
 39.940  0.2640E-83  0.4600E+03
 39.960  0.2640E-83  0.4600E+03
 39.980  0.2640E-83  0.4600E+03
 40.000  0.2640E-83  0.4600E+03
 40.020  0.2640E-83  0.4600E+03
 40.040  0.2640E-83  0.4600E+03
 40.060  0.2640E-83  0.4600E+03
 40.080  0.2640E-83  0.4600E+03
 40.100  0.2640E-83  0.4600E+03
 40.120  0.2640E-83  0.4600E+03
 40.140  0.2640E-83  0.4600E+03
 40.160  0.2640E-83  0.4600E+03
 40.180  0.2640E-83  0.4600E+03
 40.200  0.2640E-83  0.4600E+03
 40.220  0.2640E-83  0.4600E+03
 40.240  0.2640E-83  0.4600E+03
 40.260  0.2640E-83  0.4600E+03
 40.280  0.2640E-83  0.4600E+03
 40.300  0.2640E-83  0.4600E+03
 40.320  0.2640E-83  0.4600E+03
 40.340  0.2640E-83  0.4600E+03
 40.360  0.2640E-83  0.4600E+03
 40.380  0.2640E-83  0.4600E+03
 40.400  0.2640E-83  0.4600E+03
 40.420  0.2640E-83  0.4600E+03
 40.440  0.2640E-83  0.4600E+03
 40.460  0.2640E-83  0.4600E+03
 40.480  0.2640E-83  0.4600E+03
 40.500  0.2640E-83  0.4600E+03
 40.520  0.2640E-83  0.4600E+03
 40.540  0.2640E-83  0.4600E+03
 40.560  0.2640E-83  0.4600E+03
 40.580  0.2640E-83  0.4600E+03
 40.600  0.2640E-83  0.4600E+03
 40.620  0.2640E-83  0.4600E+03
 40.640  0.2640E-83  0.4600E+03
 40.660  0.2640E-83  0.4600E+03
 40.680  0.2640E-83  0.4600E+03
 40.700  0.2640E-83  0.4600E+03
 40.720  0.2640E-83  0.4600E+03
 40.740  0.2640E-83  0.4600E+03
 40.760  0.2640E-83  0.4600E+03
 40.780  0.2640E-83  0.4600E+03
 40.800  0.2640E-83  0.4600E+03
 40.820  0.2640E-83  0.4600E+03
 40.840  0.2640E-83  0.4600E+03
 40.860  0.2640E-83  0.4600E+03
 40.880  0.2640E-83  0.4600E+03
 40.900  0.2640E-83  0.4600E+03
 40.920  0.2640E-83  0.4600E+03
 40.940  0.2640E-83  0.4600E+03
 40.960  0.2640E-83  0.4600E+03
 40.980  0.2640E-83  0.4600E+03
 41.000  0.2640E-83  0.4600E+03
 41.020  0.2640E-83  0.4600E+03
 41.040  0.2640E-83  0.4600E+03
 41.060  0.2640E-83  0.4600E+03
 41.080  0.2640E-83  0.4600E+03
 41.100  0.2640E-83  0.4600E+03
 41.120  0.2640E-83  0.4600E+03
 41.140  0.2640E-83  0.4600E+03
 41.160  0.2640E-83  0.4600E+03
 41.180  0.2640E-83  0.4600E+03
 41.200  0.2640E-83  0.4600E+03
 41.220  0.2640E-83  0.4600E+03
 41.240  0.2640E-83  0.4600E+03
 41.260  0.2640E-83  0.4600E+03
 41.280  0.2640E-83  0.4600E+03
 41.300  0.2640E-83  0.4600E+03
 41.320  0.2640E-83  0.4600E+03
 41.340  0.2640E-83  0.4600E+03
 41.360  0.2640E-83  0.4600E+03
 41.380  0.2640E-83  0.4600E+03
 41.400  0.2640E-83  0.4600E+03
 41.420  0.2640E-83  0.4600E+03
 41.440  0.2640E-83  0.4600E+03
 41.460  0.2640E-83  0.4600E+03
 41.480  0.2640E-83  0.4600E+03
 41.500  0.2640E-83  0.4600E+03
 41.520  0.2640E-83  0.4600E+03
 41.540  0.2640E-83  0.4600E+03
 41.560  0.2640E-83  0.4600E+03
 41.580  0.2640E-83  0.4600E+03
 41.600  0.2640E-83  0.4600E+03
 41.620  0.2640E-83  0.4600E+03
 41.640  0.2640E-83  0.4600E+03
 41.660  0.2640E-83  0.4600E+03
 41.680  0.2640E-83  0.4600E+03
 41.700  0.2640E-83  0.4600E+03
 41.720  0.2640E-83  0.4600E+03
 41.740  0.2640E-83  0.4600E+03
 41.760  0.2640E-83  0.4600E+03
 41.780  0.2640E-83  0.4600E+03
 41.800  0.2640E-83  0.4600E+03
 41.820  0.2640E-83  0.4600E+03
 41.840  0.2640E-83  0.4600E+03
 41.860  0.2640E-83  0.4600E+03
 41.880  0.2640E-83  0.4600E+03
 41.900  0.2640E-83  0.4600E+03
 41.920  0.2640E-83  0.4600E+03
 41.940  0.2640E-83  0.4600E+03
 41.960  0.2640E-83  0.4600E+03
 41.980  0.2640E-83  0.4600E+03
 42.000  0.2640E-83  0.4600E+03
 42.020  0.2640E-83  0.4600E+03
 42.040  0.2640E-83  0.4600E+03
 42.060  0.2640E-83  0.4600E+03
 42.080  0.2640E-83  0.4600E+03
 42.100  0.2640E-83  0.4600E+03
 42.120  0.2640E-83  0.4600E+03
 42.140  0.2640E-83  0.4600E+03
 42.160  0.2640E-83  0.4600E+03
 42.180  0.2640E-83  0.4600E+03
 42.200  0.2640E-83  0.4600E+03
 42.220  0.2640E-83  0.4600E+03
 42.240  0.2640E-83  0.4600E+03
 42.260  0.2640E-83  0.4600E+03
 42.280  0.2640E-83  0.4600E+03
 42.300  0.2640E-83  0.4600E+03
 42.320  0.2640E-83  0.4600E+03
 42.340  0.2640E-83  0.4600E+03
 42.360  0.2640E-83  0.4600E+03
 42.380  0.2640E-83  0.4600E+03
 42.400  0.2640E-83  0.4600E+03
 42.420  0.2640E-83  0.4600E+03
 42.440  0.2640E-83  0.4600E+03
 42.460  0.2640E-83  0.4600E+03
 42.480  0.2640E-83  0.4600E+03
 42.500  0.2640E-83  0.4600E+03
 42.520  0.2640E-83  0.4600E+03
 42.540  0.2640E-83  0.4600E+03
 42.560  0.2640E-83  0.4600E+03
 42.580  0.2640E-83  0.4600E+03
 42.600  0.2640E-83  0.4600E+03
 42.620  0.2640E-83  0.4600E+03
 42.640  0.2640E-83  0.4600E+03
 42.660  0.2640E-83  0.4600E+03
 42.680  0.2640E-83  0.4600E+03
 42.700  0.2640E-83  0.4600E+03
 42.720  0.2640E-83  0.4600E+03
 42.740  0.2640E-83  0.4600E+03
 42.760  0.2640E-83  0.4600E+03
 42.780  0.2640E-83  0.4600E+03
 42.800  0.2640E-83  0.4600E+03
 42.820  0.2640E-83  0.4600E+03
 42.840  0.2640E-83  0.4600E+03
 42.860  0.2640E-83  0.4600E+03
 42.880  0.2640E-83  0.4600E+03
 42.900  0.2640E-83  0.4600E+03
 42.920  0.2640E-83  0.4600E+03
 42.940  0.2640E-83  0.4600E+03
 42.960  0.2640E-83  0.4600E+03
 42.980  0.2640E-83  0.4600E+03
 43.000  0.2640E-83  0.4600E+03
 43.020  0.2640E-83  0.4600E+03
 43.040  0.2640E-83  0.4600E+03
 43.060  0.2640E-83  0.4600E+03
 43.080  0.2640E-83  0.4600E+03
 43.100  0.2640E-83  0.4600E+03
 43.120  0.2640E-83  0.4600E+03
 43.140  0.2640E-83  0.4600E+03
 43.160  0.2640E-83  0.4600E+03
 43.180  0.2640E-83  0.4600E+03
 43.200  0.2640E-83  0.4600E+03
 43.220  0.2640E-83  0.4600E+03
 43.240  0.2640E-83  0.4600E+03
 43.260  0.2640E-83  0.4600E+03
 43.280  0.2640E-83  0.4600E+03
 43.300  0.2640E-83  0.4600E+03
 43.320  0.2640E-83  0.4600E+03
 43.340  0.2640E-83  0.4600E+03
 43.360  0.2640E-83  0.4600E+03
 43.380  0.2640E-83  0.4600E+03
 43.400  0.2640E-83  0.4600E+03
 43.420  0.2640E-83  0.4600E+03
 43.440  0.2640E-83  0.4600E+03
 43.460  0.2640E-83  0.4600E+03
 43.480  0.2640E-83  0.4600E+03
 43.500  0.2640E-83  0.4600E+03
 43.520  0.2640E-83  0.4600E+03
 43.540  0.2640E-83  0.4600E+03
 43.560  0.2640E-83  0.4600E+03
 43.580  0.2640E-83  0.4600E+03
 43.600  0.2640E-83  0.4600E+03
 43.620  0.2640E-83  0.4600E+03
 43.640  0.2640E-83  0.4600E+03
 43.660  0.2640E-83  0.4600E+03
 43.680  0.2640E-83  0.4600E+03
 43.700  0.2640E-83  0.4600E+03
 43.720  0.2640E-83  0.4600E+03
 43.740  0.2640E-83  0.4600E+03
 43.760  0.2640E-83  0.4600E+03
 43.780  0.2640E-83  0.4600E+03
 43.800  0.2640E-83  0.4600E+03
 43.820  0.2640E-83  0.4600E+03
 43.840  0.2640E-83  0.4600E+03
 43.860  0.2640E-83  0.4600E+03
 43.880  0.2640E-83  0.4600E+03
 43.900  0.2640E-83  0.4600E+03
 43.920  0.2640E-83  0.4600E+03
 43.940  0.2640E-83  0.4600E+03
 43.960  0.2640E-83  0.4600E+03
 43.980  0.2640E-83  0.4600E+03
 44.000  0.2640E-83  0.4600E+03
 44.020  0.2640E-83  0.4600E+03
 44.040  0.2640E-83  0.4600E+03
 44.060  0.2640E-83  0.4600E+03
 44.080  0.2640E-83  0.4600E+03
 44.100  0.2640E-83  0.4600E+03
 44.120  0.2640E-83  0.4600E+03
 44.140  0.2640E-83  0.4600E+03
 44.160  0.2640E-83  0.4600E+03
 44.180  0.2640E-83  0.4600E+03
 44.200  0.2640E-83  0.4600E+03
 44.220  0.2640E-83  0.4600E+03
 44.240  0.2640E-83  0.4600E+03
 44.260  0.2640E-83  0.4600E+03
 44.280  0.2640E-83  0.4600E+03
 44.300  0.2640E-83  0.4600E+03
 44.320  0.2640E-83  0.4600E+03
 44.340  0.2640E-83  0.4600E+03
 44.360  0.2640E-83  0.4600E+03
 44.380  0.2640E-83  0.4600E+03
 44.400  0.2640E-83  0.4600E+03
 44.420  0.2640E-83  0.4600E+03
 44.440  0.2640E-83  0.4600E+03
 44.460  0.2640E-83  0.4600E+03
 44.480  0.2640E-83  0.4600E+03
 44.500  0.2640E-83  0.4600E+03
 44.520  0.2640E-83  0.4600E+03
 44.540  0.2640E-83  0.4600E+03
 44.560  0.2640E-83  0.4600E+03
 44.580  0.2640E-83  0.4600E+03
 44.600  0.2640E-83  0.4600E+03
 44.620  0.2640E-83  0.4600E+03
 44.640  0.2640E-83  0.4600E+03
 44.660  0.2640E-83  0.4600E+03
 44.680  0.2640E-83  0.4600E+03
 44.700  0.2640E-83  0.4600E+03
 44.720  0.2640E-83  0.4600E+03
 44.740  0.2640E-83  0.4600E+03
 44.760  0.2640E-83  0.4600E+03
 44.780  0.2640E-83  0.4600E+03
 44.800  0.2640E-83  0.4600E+03
 44.820  0.2640E-83  0.4600E+03
 44.840  0.2640E-83  0.4600E+03
 44.860  0.2640E-83  0.4600E+03
 44.880  0.2640E-83  0.4600E+03
 44.900  0.2640E-83  0.4600E+03
 44.920  0.2640E-83  0.4600E+03
 44.940  0.2640E-83  0.4600E+03
 44.960  0.2640E-83  0.4600E+03
 44.980  0.2640E-83  0.4600E+03
 45.000  0.2640E-83  0.4600E+03
 45.020  0.2640E-83  0.4600E+03
 45.040  0.2640E-83  0.4600E+03
 45.060  0.2640E-83  0.4600E+03
 45.080  0.2640E-83  0.4600E+03
 45.100  0.2640E-83  0.4600E+03
 45.120  0.2640E-83  0.4600E+03
 45.140  0.2640E-83  0.4600E+03
 45.160  0.2640E-83  0.4600E+03
 45.180  0.2640E-83  0.4600E+03
 45.200  0.2640E-83  0.4600E+03
 45.220  0.2640E-83  0.4600E+03
 45.240  0.2640E-83  0.4600E+03
 45.260  0.2640E-83  0.4600E+03
 45.280  0.2640E-83  0.4600E+03
 45.300  0.2640E-83  0.4600E+03
 45.320  0.2640E-83  0.4600E+03
 45.340  0.2640E-83  0.4600E+03
 45.360  0.2640E-83  0.4600E+03
 45.380  0.2640E-83  0.4600E+03
 45.400  0.2640E-83  0.4600E+03
 45.420  0.2640E-83  0.4600E+03
 45.440  0.2640E-83  0.4600E+03
 45.460  0.2640E-83  0.4600E+03
 45.480  0.2640E-83  0.4600E+03
 45.500  0.2640E-83  0.4600E+03
 45.520  0.2640E-83  0.4600E+03
 45.540  0.2640E-83  0.4600E+03
 45.560  0.2640E-83  0.4600E+03
 45.580  0.2640E-83  0.4600E+03
 45.600  0.2640E-83  0.4600E+03
 45.620  0.2640E-83  0.4600E+03
 45.640  0.2640E-83  0.4600E+03
 45.660  0.2640E-83  0.4600E+03
 45.680  0.2640E-83  0.4600E+03
 45.700  0.2640E-83  0.4600E+03
 45.720  0.2640E-83  0.4600E+03
 45.740  0.2640E-83  0.4600E+03
 45.760  0.2640E-83  0.4600E+03
 45.780  0.2640E-83  0.4600E+03
 45.800  0.2640E-83  0.4600E+03
 45.820  0.2640E-83  0.4600E+03
 45.840  0.2640E-83  0.4600E+03
 45.860  0.2640E-83  0.4600E+03
 45.880  0.2640E-83  0.4600E+03
 45.900  0.2640E-83  0.4600E+03
 45.920  0.2640E-83  0.4600E+03
 45.940  0.2640E-83  0.4600E+03
 45.960  0.2640E-83  0.4600E+03
 45.980  0.2640E-83  0.4600E+03
 46.000  0.2640E-83  0.4600E+03
 46.020  0.2640E-83  0.4600E+03
 46.040  0.2640E-83  0.4600E+03
 46.060  0.2640E-83  0.4600E+03
 46.080  0.2640E-83  0.4600E+03
 46.100  0.2640E-83  0.4600E+03
 46.120  0.2640E-83  0.4600E+03
 46.140  0.2640E-83  0.4600E+03
 46.160  0.2640E-83  0.4600E+03
 46.180  0.2640E-83  0.4600E+03
 46.200  0.2640E-83  0.4600E+03
 46.220  0.2640E-83  0.4600E+03
 46.240  0.2640E-83  0.4600E+03
 46.260  0.2640E-83  0.4600E+03
 46.280  0.2640E-83  0.4600E+03
 46.300  0.2640E-83  0.4600E+03
 46.320  0.2640E-83  0.4600E+03
 46.340  0.2640E-83  0.4600E+03
 46.360  0.2640E-83  0.4600E+03
 46.380  0.2640E-83  0.4600E+03
 46.400  0.2640E-83  0.4600E+03
 46.420  0.2640E-83  0.4600E+03
 46.440  0.2640E-83  0.4600E+03
 46.460  0.2640E-83  0.4600E+03
 46.480  0.2640E-83  0.4600E+03
 46.500  0.2640E-83  0.4600E+03
 46.520  0.2640E-83  0.4600E+03
 46.540  0.2640E-83  0.4600E+03
 46.560  0.2640E-83  0.4600E+03
 46.580  0.2640E-83  0.4600E+03
 46.600  0.2640E-83  0.4600E+03
 46.620  0.2640E-83  0.4600E+03
 46.640  0.2640E-83  0.4600E+03
 46.660  0.2640E-83  0.4600E+03
 46.680  0.2640E-83  0.4600E+03
 46.700  0.2640E-83  0.4600E+03
 46.720  0.2640E-83  0.4600E+03
 46.740  0.2640E-83  0.4600E+03
 46.760  0.2640E-83  0.4600E+03
 46.780  0.2640E-83  0.4600E+03
 46.800  0.2640E-83  0.4600E+03
 46.820  0.2640E-83  0.4600E+03
 46.840  0.2640E-83  0.4600E+03
 46.860  0.2640E-83  0.4600E+03
 46.880  0.2640E-83  0.4600E+03
 46.900  0.2640E-83  0.4600E+03
 46.920  0.2640E-83  0.4600E+03
 46.940  0.2640E-83  0.4600E+03
 46.960  0.2640E-83  0.4600E+03
 46.980  0.2640E-83  0.4600E+03
 47.000  0.2640E-83  0.4600E+03
 47.020  0.2640E-83  0.4600E+03
 47.040  0.2640E-83  0.4600E+03
 47.060  0.2640E-83  0.4600E+03
 47.080  0.2640E-83  0.4600E+03
 47.100  0.2640E-83  0.4600E+03
 47.120  0.2640E-83  0.4600E+03
 47.140  0.2640E-83  0.4600E+03
 47.160  0.2640E-83  0.4600E+03
 47.180  0.2640E-83  0.4600E+03
 47.200  0.2640E-83  0.4600E+03
 47.220  0.2640E-83  0.4600E+03
 47.240  0.2640E-83  0.4600E+03
 47.260  0.2640E-83  0.4600E+03
 47.280  0.2640E-83  0.4600E+03
 47.300  0.2640E-83  0.4600E+03
 47.320  0.2640E-83  0.4600E+03
 47.340  0.2640E-83  0.4600E+03
 47.360  0.2640E-83  0.4600E+03
 47.380  0.2640E-83  0.4600E+03
 47.400  0.2640E-83  0.4600E+03
 47.420  0.2640E-83  0.4600E+03
 47.440  0.2640E-83  0.4600E+03
 47.460  0.2640E-83  0.4600E+03
 47.480  0.2640E-83  0.4600E+03
 47.500  0.2640E-83  0.4600E+03
 47.520  0.2640E-83  0.4600E+03
 47.540  0.2640E-83  0.4600E+03
 47.560  0.2640E-83  0.4600E+03
 47.580  0.2640E-83  0.4600E+03
 47.600  0.2640E-83  0.4600E+03
 47.620  0.2640E-83  0.4600E+03
 47.640  0.2640E-83  0.4600E+03
 47.660  0.2640E-83  0.4600E+03
 47.680  0.2640E-83  0.4600E+03
 47.700  0.2640E-83  0.4600E+03
 47.720  0.2640E-83  0.4600E+03
 47.740  0.2640E-83  0.4600E+03
 47.760  0.2640E-83  0.4600E+03
 47.780  0.2640E-83  0.4600E+03
 47.800  0.2640E-83  0.4600E+03
 47.820  0.2640E-83  0.4600E+03
 47.840  0.2640E-83  0.4600E+03
 47.860  0.2640E-83  0.4600E+03
 47.880  0.2640E-83  0.4600E+03
 47.900  0.2640E-83  0.4600E+03
 47.920  0.2640E-83  0.4600E+03
 47.940  0.2640E-83  0.4600E+03
 47.960  0.2640E-83  0.4600E+03
 47.980  0.2640E-83  0.4600E+03
 48.000  0.2640E-83  0.4600E+03
 48.020  0.2640E-83  0.4600E+03
 48.040  0.2640E-83  0.4600E+03
 48.060  0.2640E-83  0.4600E+03
 48.080  0.2640E-83  0.4600E+03
 48.100  0.2640E-83  0.4600E+03
 48.120  0.2640E-83  0.4600E+03
 48.140  0.2640E-83  0.4600E+03
 48.160  0.2640E-83  0.4600E+03
 48.180  0.2640E-83  0.4600E+03
 48.200  0.2640E-83  0.4600E+03
 48.220  0.2640E-83  0.4600E+03
 48.240  0.2640E-83  0.4600E+03
 48.260  0.2640E-83  0.4600E+03
 48.280  0.2640E-83  0.4600E+03
 48.300  0.2640E-83  0.4600E+03
 48.320  0.2640E-83  0.4600E+03
 48.340  0.2640E-83  0.4600E+03
 48.360  0.2640E-83  0.4600E+03
 48.380  0.2640E-83  0.4600E+03
 48.400  0.2640E-83  0.4600E+03
 48.420  0.2640E-83  0.4600E+03
 48.440  0.2640E-83  0.4600E+03
 48.460  0.2640E-83  0.4600E+03
 48.480  0.2640E-83  0.4600E+03
 48.500  0.2640E-83  0.4600E+03
 48.520  0.2640E-83  0.4600E+03
 48.540  0.2640E-83  0.4600E+03
 48.560  0.2640E-83  0.4600E+03
 48.580  0.2640E-83  0.4600E+03
 48.600  0.2640E-83  0.4600E+03
 48.620  0.2640E-83  0.4600E+03
 48.640  0.2640E-83  0.4600E+03
 48.660  0.2640E-83  0.4600E+03
 48.680  0.2640E-83  0.4600E+03
 48.700  0.2640E-83  0.4600E+03
 48.720  0.2640E-83  0.4600E+03
 48.740  0.2640E-83  0.4600E+03
 48.760  0.2640E-83  0.4600E+03
 48.780  0.2640E-83  0.4600E+03
 48.800  0.2640E-83  0.4600E+03
 48.820  0.2640E-83  0.4600E+03
 48.840  0.2640E-83  0.4600E+03
 48.860  0.2640E-83  0.4600E+03
 48.880  0.2640E-83  0.4600E+03
 48.900  0.2640E-83  0.4600E+03
 48.920  0.2640E-83  0.4600E+03
 48.940  0.2640E-83  0.4600E+03
 48.960  0.2640E-83  0.4600E+03
 48.980  0.2640E-83  0.4600E+03
 49.000  0.2640E-83  0.4600E+03
 49.020  0.2640E-83  0.4600E+03
 49.040  0.2640E-83  0.4600E+03
 49.060  0.2640E-83  0.4600E+03
 49.080  0.2640E-83  0.4600E+03
 49.100  0.2640E-83  0.4600E+03
 49.120  0.2640E-83  0.4600E+03
 49.140  0.2640E-83  0.4600E+03
 49.160  0.2640E-83  0.4600E+03
 49.180  0.2640E-83  0.4600E+03
 49.200  0.2640E-83  0.4600E+03
 49.220  0.2640E-83  0.4600E+03
 49.240  0.2640E-83  0.4600E+03
 49.260  0.2640E-83  0.4600E+03
 49.280  0.2640E-83  0.4600E+03
 49.300  0.2640E-83  0.4600E+03
 49.320  0.2640E-83  0.4600E+03
 49.340  0.2640E-83  0.4600E+03
 49.360  0.2640E-83  0.4600E+03
 49.380  0.2640E-83  0.4600E+03
 49.400  0.2640E-83  0.4600E+03
 49.420  0.2640E-83  0.4600E+03
 49.440  0.2640E-83  0.4600E+03
 49.460  0.2640E-83  0.4600E+03
 49.480  0.2640E-83  0.4600E+03
 49.500  0.2640E-83  0.4600E+03
 49.520  0.2640E-83  0.4600E+03
 49.540  0.2640E-83  0.4600E+03
 49.560  0.2640E-83  0.4600E+03
 49.580  0.2640E-83  0.4600E+03
 49.600  0.2640E-83  0.4600E+03
 49.620  0.2640E-83  0.4600E+03
 49.640  0.2640E-83  0.4600E+03
 49.660  0.2640E-83  0.4600E+03
 49.680  0.2640E-83  0.4600E+03
 49.700  0.2640E-83  0.4600E+03
 49.720  0.2640E-83  0.4600E+03
 49.740  0.2640E-83  0.4600E+03
 49.760  0.2640E-83  0.4600E+03
 49.780  0.2640E-83  0.4600E+03
 49.800  0.2640E-83  0.4600E+03
 49.820  0.2640E-83  0.4600E+03
 49.840  0.2640E-83  0.4600E+03
 49.860  0.2640E-83  0.4600E+03
 49.880  0.2640E-83  0.4600E+03
 49.900  0.2640E-83  0.4600E+03
 49.920  0.2640E-83  0.4600E+03
 49.940  0.2640E-83  0.4600E+03
 49.960  0.2640E-83  0.4600E+03
 49.980  0.2640E-83  0.4600E+03
 50.000  0.2640E-83  0.4600E+03
